T = 0.276721
Normalization Constant = 24000.000000     v        P(v)     Gaussian Fit
-3.000000   0.000000    0.000000
-2.998800   0.000000    0.000000
-2.997600   0.000000    0.000000
-2.996400   0.000000    0.000000
-2.995200   0.000000    0.000000
-2.994000   0.000000    0.000000
-2.992800   0.000000    0.000000
-2.991600   0.000000    0.000000
-2.990400   0.000000    0.000000
-2.989200   0.000000    0.000000
-2.988000   0.000000    0.000000
-2.986800   0.000000    0.000000
-2.985600   0.000000    0.000000
-2.984400   0.000000    0.000000
-2.983200   0.000000    0.000000
-2.982000   0.000000    0.000000
-2.980800   0.000000    0.000000
-2.979600   0.000000    0.000000
-2.978400   0.000000    0.000000
-2.977200   0.000000    0.000000
-2.976000   0.000000    0.000000
-2.974800   0.000000    0.000000
-2.973600   0.000000    0.000000
-2.972400   0.000000    0.000000
-2.971200   0.000000    0.000000
-2.970000   0.000000    0.000000
-2.968800   0.000000    0.000000
-2.967600   0.000000    0.000000
-2.966400   0.000000    0.000000
-2.965200   0.000000    0.000000
-2.964000   0.000000    0.000000
-2.962800   0.000000    0.000000
-2.961600   0.000000    0.000000
-2.960400   0.000000    0.000000
-2.959200   0.000000    0.000000
-2.958000   0.000000    0.000000
-2.956800   0.000000    0.000000
-2.955600   0.000000    0.000000
-2.954400   0.000000    0.000000
-2.953200   0.000000    0.000000
-2.952000   0.000000    0.000000
-2.950800   0.000000    0.000000
-2.949600   0.000000    0.000000
-2.948400   0.000000    0.000000
-2.947200   0.000000    0.000000
-2.946000   0.000000    0.000000
-2.944800   0.000000    0.000000
-2.943600   0.000000    0.000000
-2.942400   0.000000    0.000000
-2.941200   0.000000    0.000000
-2.940000   0.000000    0.000000
-2.938800   0.000000    0.000000
-2.937600   0.000000    0.000000
-2.936400   0.000000    0.000000
-2.935200   0.000000    0.000000
-2.934000   0.000000    0.000000
-2.932800   0.000000    0.000000
-2.931600   0.000000    0.000000
-2.930400   0.000000    0.000000
-2.929200   0.000000    0.000000
-2.928000   0.000000    0.000000
-2.926800   0.000000    0.000000
-2.925600   0.000000    0.000000
-2.924400   0.000000    0.000000
-2.923200   0.000000    0.000000
-2.922000   0.000000    0.000000
-2.920800   0.000000    0.000000
-2.919600   0.000000    0.000000
-2.918400   0.000000    0.000000
-2.917200   0.000000    0.000000
-2.916000   0.000000    0.000000
-2.914800   0.000000    0.000000
-2.913600   0.000000    0.000000
-2.912400   0.000000    0.000000
-2.911200   0.000000    0.000000
-2.910000   0.000000    0.000000
-2.908800   0.000000    0.000000
-2.907600   0.000000    0.000000
-2.906400   0.000000    0.000000
-2.905200   0.000000    0.000000
-2.904000   0.000000    0.000000
-2.902800   0.000000    0.000000
-2.901600   0.000000    0.000000
-2.900400   0.000000    0.000000
-2.899200   0.000000    0.000000
-2.898000   0.000000    0.000000
-2.896800   0.000000    0.000000
-2.895600   0.000000    0.000000
-2.894400   0.000000    0.000000
-2.893200   0.000000    0.000000
-2.892000   0.000000    0.000000
-2.890800   0.000000    0.000000
-2.889600   0.000000    0.000000
-2.888400   0.000000    0.000000
-2.887200   0.000000    0.000000
-2.886000   0.000000    0.000000
-2.884800   0.000000    0.000000
-2.883600   0.000000    0.000000
-2.882400   0.000000    0.000000
-2.881200   0.000000    0.000000
-2.880000   0.000000    0.000000
-2.878800   0.000000    0.000000
-2.877600   0.000000    0.000000
-2.876400   0.000000    0.000000
-2.875200   0.000000    0.000000
-2.874000   0.000000    0.000000
-2.872800   0.000000    0.000000
-2.871600   0.000000    0.000000
-2.870400   0.000000    0.000000
-2.869200   0.000000    0.000000
-2.868000   0.000000    0.000000
-2.866800   0.000000    0.000000
-2.865600   0.000000    0.000000
-2.864400   0.000000    0.000000
-2.863200   0.000000    0.000000
-2.862000   0.000000    0.000000
-2.860800   0.000000    0.000000
-2.859600   0.000000    0.000000
-2.858400   0.000000    0.000000
-2.857200   0.000000    0.000000
-2.856000   0.000000    0.000000
-2.854800   0.000000    0.000000
-2.853600   0.000000    0.000000
-2.852400   0.000000    0.000000
-2.851200   0.000000    0.000000
-2.850000   0.000000    0.000000
-2.848800   0.000000    0.000000
-2.847600   0.000000    0.000000
-2.846400   0.000000    0.000000
-2.845200   0.000000    0.000000
-2.844000   0.000000    0.000000
-2.842800   0.000000    0.000000
-2.841600   0.000000    0.000000
-2.840400   0.000000    0.000000
-2.839200   0.000000    0.000000
-2.838000   0.000000    0.000000
-2.836800   0.000000    0.000000
-2.835600   0.000000    0.000000
-2.834400   0.000000    0.000000
-2.833200   0.000000    0.000000
-2.832000   0.000000    0.000000
-2.830800   0.000000    0.000000
-2.829600   0.000000    0.000000
-2.828400   0.000000    0.000000
-2.827200   0.000000    0.000000
-2.826000   0.000000    0.000000
-2.824800   0.000000    0.000000
-2.823600   0.000000    0.000000
-2.822400   0.000000    0.000000
-2.821200   0.000000    0.000000
-2.820000   0.000000    0.000000
-2.818800   0.000000    0.000000
-2.817600   0.000000    0.000000
-2.816400   0.000000    0.000000
-2.815200   0.000000    0.000000
-2.814000   0.000000    0.000000
-2.812800   0.000000    0.000000
-2.811600   0.000000    0.000000
-2.810400   0.000000    0.000000
-2.809200   0.000000    0.000000
-2.808000   0.000000    0.000000
-2.806800   0.000000    0.000000
-2.805600   0.000000    0.000001
-2.804400   0.000000    0.000001
-2.803200   0.000000    0.000001
-2.802000   0.000000    0.000001
-2.800800   0.000000    0.000001
-2.799600   0.000000    0.000001
-2.798400   0.000000    0.000001
-2.797200   0.000000    0.000001
-2.796000   0.000000    0.000001
-2.794800   0.000000    0.000001
-2.793600   0.000000    0.000001
-2.792400   0.000000    0.000001
-2.791200   0.000000    0.000001
-2.790000   0.000000    0.000001
-2.788800   0.000000    0.000001
-2.787600   0.000000    0.000001
-2.786400   0.000000    0.000001
-2.785200   0.000000    0.000001
-2.784000   0.000000    0.000001
-2.782800   0.000000    0.000001
-2.781600   0.000000    0.000001
-2.780400   0.000000    0.000001
-2.779200   0.000000    0.000001
-2.778000   0.000000    0.000001
-2.776800   0.000000    0.000001
-2.775600   0.000000    0.000001
-2.774400   0.000000    0.000001
-2.773200   0.000000    0.000001
-2.772000   0.000000    0.000001
-2.770800   0.000000    0.000001
-2.769600   0.000000    0.000001
-2.768400   0.000000    0.000001
-2.767200   0.000000    0.000001
-2.766000   0.000000    0.000001
-2.764800   0.000000    0.000001
-2.763600   0.000000    0.000001
-2.762400   0.000000    0.000001
-2.761200   0.000000    0.000001
-2.760000   0.000000    0.000001
-2.758800   0.000000    0.000001
-2.757600   0.000000    0.000001
-2.756400   0.000000    0.000001
-2.755200   0.000000    0.000001
-2.754000   0.000000    0.000001
-2.752800   0.000000    0.000001
-2.751600   0.000000    0.000001
-2.750400   0.000000    0.000001
-2.749200   0.000000    0.000001
-2.748000   0.000000    0.000001
-2.746800   0.000000    0.000001
-2.745600   0.000000    0.000001
-2.744400   0.000000    0.000001
-2.743200   0.000000    0.000001
-2.742000   0.000000    0.000001
-2.740800   0.000000    0.000001
-2.739600   0.000000    0.000001
-2.738400   0.000000    0.000001
-2.737200   0.000000    0.000001
-2.736000   0.000000    0.000001
-2.734800   0.000000    0.000001
-2.733600   0.000000    0.000001
-2.732400   0.000000    0.000001
-2.731200   0.000000    0.000001
-2.730000   0.000000    0.000001
-2.728800   0.000000    0.000001
-2.727600   0.000000    0.000001
-2.726400   0.000000    0.000001
-2.725200   0.000000    0.000001
-2.724000   0.000000    0.000001
-2.722800   0.000000    0.000001
-2.721600   0.000000    0.000001
-2.720400   0.000000    0.000001
-2.719200   0.000000    0.000001
-2.718000   0.000000    0.000001
-2.716800   0.000000    0.000001
-2.715600   0.000000    0.000001
-2.714400   0.000000    0.000001
-2.713200   0.000000    0.000001
-2.712000   0.000000    0.000001
-2.710800   0.000000    0.000001
-2.709600   0.000000    0.000001
-2.708400   0.000000    0.000001
-2.707200   0.000000    0.000001
-2.706000   0.000000    0.000001
-2.704800   0.000000    0.000001
-2.703600   0.000000    0.000001
-2.702400   0.000000    0.000001
-2.701200   0.000000    0.000001
-2.700000   0.000000    0.000001
-2.698800   0.000000    0.000001
-2.697600   0.000000    0.000001
-2.696400   0.000000    0.000001
-2.695200   0.000000    0.000002
-2.694000   0.000000    0.000002
-2.692800   0.000000    0.000002
-2.691600   0.000000    0.000002
-2.690400   0.000000    0.000002
-2.689200   0.000000    0.000002
-2.688000   0.000000    0.000002
-2.686800   0.000000    0.000002
-2.685600   0.000000    0.000002
-2.684400   0.000000    0.000002
-2.683200   0.000000    0.000002
-2.682000   0.000000    0.000002
-2.680800   0.000000    0.000002
-2.679600   0.000000    0.000002
-2.678400   0.000000    0.000002
-2.677200   0.000000    0.000002
-2.676000   0.000000    0.000002
-2.674800   0.000000    0.000002
-2.673600   0.000000    0.000002
-2.672400   0.000000    0.000002
-2.671200   0.000000    0.000002
-2.670000   0.000000    0.000002
-2.668800   0.000000    0.000002
-2.667600   0.000000    0.000002
-2.666400   0.000000    0.000002
-2.665200   0.000000    0.000002
-2.664000   0.000000    0.000002
-2.662800   0.000000    0.000002
-2.661600   0.000000    0.000002
-2.660400   0.000000    0.000002
-2.659200   0.000000    0.000002
-2.658000   0.000000    0.000002
-2.656800   0.000000    0.000002
-2.655600   0.000000    0.000002
-2.654400   0.000000    0.000002
-2.653200   0.000000    0.000002
-2.652000   0.000000    0.000002
-2.650800   0.000000    0.000002
-2.649600   0.000000    0.000002
-2.648400   0.000000    0.000002
-2.647200   0.000000    0.000002
-2.646000   0.000000    0.000002
-2.644800   0.000000    0.000002
-2.643600   0.000000    0.000002
-2.642400   0.000000    0.000003
-2.641200   0.000000    0.000003
-2.640000   0.000000    0.000003
-2.638800   0.000000    0.000003
-2.637600   0.000000    0.000003
-2.636400   0.000000    0.000003
-2.635200   0.000000    0.000003
-2.634000   0.000000    0.000003
-2.632800   0.000000    0.000003
-2.631600   0.000000    0.000003
-2.630400   0.000000    0.000003
-2.629200   0.000000    0.000003
-2.628000   0.000000    0.000003
-2.626800   0.000000    0.000003
-2.625600   0.000000    0.000003
-2.624400   0.000000    0.000003
-2.623200   0.000000    0.000003
-2.622000   0.000000    0.000003
-2.620800   0.000000    0.000003
-2.619600   0.000000    0.000003
-2.618400   0.000000    0.000003
-2.617200   0.000000    0.000003
-2.616000   0.000000    0.000003
-2.614800   0.000000    0.000003
-2.613600   0.000000    0.000003
-2.612400   0.000000    0.000003
-2.611200   0.000000    0.000003
-2.610000   0.000000    0.000003
-2.608800   0.000000    0.000003
-2.607600   0.000000    0.000004
-2.606400   0.000000    0.000004
-2.605200   0.000000    0.000004
-2.604000   0.000000    0.000004
-2.602800   0.000000    0.000004
-2.601600   0.000000    0.000004
-2.600400   0.000000    0.000004
-2.599200   0.000000    0.000004
-2.598000   0.000000    0.000004
-2.596800   0.000000    0.000004
-2.595600   0.000000    0.000004
-2.594400   0.000000    0.000004
-2.593200   0.000000    0.000004
-2.592000   0.000000    0.000004
-2.590800   0.000000    0.000004
-2.589600   0.000000    0.000004
-2.588400   0.000000    0.000004
-2.587200   0.000000    0.000004
-2.586000   0.000000    0.000004
-2.584800   0.000000    0.000004
-2.583600   0.000000    0.000004
-2.582400   0.000000    0.000004
-2.581200   0.000000    0.000004
-2.580000   0.000000    0.000005
-2.578800   0.000000    0.000005
-2.577600   0.000000    0.000005
-2.576400   0.000000    0.000005
-2.575200   0.000000    0.000005
-2.574000   0.000000    0.000005
-2.572800   0.000000    0.000005
-2.571600   0.000000    0.000005
-2.570400   0.000000    0.000005
-2.569200   0.000000    0.000005
-2.568000   0.000000    0.000005
-2.566800   0.000000    0.000005
-2.565600   0.000000    0.000005
-2.564400   0.000000    0.000005
-2.563200   0.000000    0.000005
-2.562000   0.000000    0.000005
-2.560800   0.000000    0.000005
-2.559600   0.000000    0.000005
-2.558400   0.000000    0.000006
-2.557200   0.000000    0.000006
-2.556000   0.000000    0.000006
-2.554800   0.000000    0.000006
-2.553600   0.000000    0.000006
-2.552400   0.000000    0.000006
-2.551200   0.000000    0.000006
-2.550000   0.000000    0.000006
-2.548800   0.000000    0.000006
-2.547600   0.000000    0.000006
-2.546400   0.000000    0.000006
-2.545200   0.000000    0.000006
-2.544000   0.000000    0.000006
-2.542800   0.000000    0.000006
-2.541600   0.000000    0.000006
-2.540400   0.000000    0.000007
-2.539200   0.000000    0.000007
-2.538000   0.000000    0.000007
-2.536800   0.000000    0.000007
-2.535600   0.000000    0.000007
-2.534400   0.000000    0.000007
-2.533200   0.000000    0.000007
-2.532000   0.000000    0.000007
-2.530800   0.000000    0.000007
-2.529600   0.000000    0.000007
-2.528400   0.000000    0.000007
-2.527200   0.000000    0.000007
-2.526000   0.000000    0.000007
-2.524800   0.000000    0.000008
-2.523600   0.000000    0.000008
-2.522400   0.000000    0.000008
-2.521200   0.000000    0.000008
-2.520000   0.000000    0.000008
-2.518800   0.000000    0.000008
-2.517600   0.000000    0.000008
-2.516400   0.000000    0.000008
-2.515200   0.000000    0.000008
-2.514000   0.000000    0.000008
-2.512800   0.000000    0.000008
-2.511600   0.000000    0.000009
-2.510400   0.000000    0.000009
-2.509200   0.000000    0.000009
-2.508000   0.000000    0.000009
-2.506800   0.000000    0.000009
-2.505600   0.000000    0.000009
-2.504400   0.000000    0.000009
-2.503200   0.000000    0.000009
-2.502000   0.000000    0.000009
-2.500800   0.000000    0.000009
-2.499600   0.000000    0.000009
-2.498400   0.000000    0.000010
-2.497200   0.000000    0.000010
-2.496000   0.000000    0.000010
-2.494800   0.000000    0.000010
-2.493600   0.000000    0.000010
-2.492400   0.000000    0.000010
-2.491200   0.000000    0.000010
-2.490000   0.000000    0.000010
-2.488800   0.000000    0.000010
-2.487600   0.000000    0.000011
-2.486400   0.000000    0.000011
-2.485200   0.000000    0.000011
-2.484000   0.000000    0.000011
-2.482800   0.000000    0.000011
-2.481600   0.000000    0.000011
-2.480400   0.000000    0.000011
-2.479200   0.000000    0.000011
-2.478000   0.000000    0.000012
-2.476800   0.000000    0.000012
-2.475600   0.000000    0.000012
-2.474400   0.000000    0.000012
-2.473200   0.000000    0.000012
-2.472000   0.000000    0.000012
-2.470800   0.000000    0.000012
-2.469600   0.000000    0.000012
-2.468400   0.000000    0.000013
-2.467200   0.000000    0.000013
-2.466000   0.000000    0.000013
-2.464800   0.000000    0.000013
-2.463600   0.000000    0.000013
-2.462400   0.000000    0.000013
-2.461200   0.000000    0.000013
-2.460000   0.000000    0.000014
-2.458800   0.000000    0.000014
-2.457600   0.000000    0.000014
-2.456400   0.000000    0.000014
-2.455200   0.000000    0.000014
-2.454000   0.000000    0.000014
-2.452800   0.000000    0.000014
-2.451600   0.000000    0.000015
-2.450400   0.000000    0.000015
-2.449200   0.000000    0.000015
-2.448000   0.000000    0.000015
-2.446800   0.000000    0.000015
-2.445600   0.000000    0.000015
-2.444400   0.000000    0.000016
-2.443200   0.000000    0.000016
-2.442000   0.000000    0.000016
-2.440800   0.000000    0.000016
-2.439600   0.000000    0.000016
-2.438400   0.000000    0.000016
-2.437200   0.000000    0.000017
-2.436000   0.000000    0.000017
-2.434800   0.000000    0.000017
-2.433600   0.000000    0.000017
-2.432400   0.000000    0.000017
-2.431200   0.000000    0.000017
-2.430000   0.000000    0.000018
-2.428800   0.000000    0.000018
-2.427600   0.000000    0.000018
-2.426400   0.000000    0.000018
-2.425200   0.000000    0.000018
-2.424000   0.000000    0.000019
-2.422800   0.000000    0.000019
-2.421600   0.000000    0.000019
-2.420400   0.000000    0.000019
-2.419200   0.000000    0.000019
-2.418000   0.000000    0.000020
-2.416800   0.000000    0.000020
-2.415600   0.000000    0.000020
-2.414400   0.000000    0.000020
-2.413200   0.000000    0.000020
-2.412000   0.000000    0.000021
-2.410800   0.000000    0.000021
-2.409600   0.000000    0.000021
-2.408400   0.000000    0.000021
-2.407200   0.000000    0.000022
-2.406000   0.000000    0.000022
-2.404800   0.000000    0.000022
-2.403600   0.000000    0.000022
-2.402400   0.000000    0.000022
-2.401200   0.000000    0.000023
-2.400000   0.000000    0.000023
-2.398800   0.000000    0.000023
-2.397600   0.000000    0.000023
-2.396400   0.000000    0.000024
-2.395200   0.000000    0.000024
-2.394000   0.000000    0.000024
-2.392800   0.000000    0.000024
-2.391600   0.000000    0.000025
-2.390400   0.000000    0.000025
-2.389200   0.000000    0.000025
-2.388000   0.000000    0.000025
-2.386800   0.000000    0.000026
-2.385600   0.000000    0.000026
-2.384400   0.000000    0.000026
-2.383200   0.000000    0.000026
-2.382000   0.000000    0.000027
-2.380800   0.000000    0.000027
-2.379600   0.000000    0.000027
-2.378400   0.000000    0.000028
-2.377200   0.000000    0.000028
-2.376000   0.000000    0.000028
-2.374800   0.000000    0.000028
-2.373600   0.000000    0.000029
-2.372400   0.000000    0.000029
-2.371200   0.000000    0.000029
-2.370000   0.000000    0.000030
-2.368800   0.000000    0.000030
-2.367600   0.000000    0.000030
-2.366400   0.000000    0.000031
-2.365200   0.000000    0.000031
-2.364000   0.000000    0.000031
-2.362800   0.000000    0.000032
-2.361600   0.000000    0.000032
-2.360400   0.000000    0.000032
-2.359200   0.000000    0.000033
-2.358000   0.000000    0.000033
-2.356800   0.000000    0.000033
-2.355600   0.000000    0.000034
-2.354400   0.000000    0.000034
-2.353200   0.000000    0.000034
-2.352000   0.000000    0.000035
-2.350800   0.000000    0.000035
-2.349600   0.000000    0.000035
-2.348400   0.000000    0.000036
-2.347200   0.000000    0.000036
-2.346000   0.000000    0.000036
-2.344800   0.000000    0.000037
-2.343600   0.000000    0.000037
-2.342400   0.000000    0.000038
-2.341200   0.000000    0.000038
-2.340000   0.000000    0.000038
-2.338800   0.000000    0.000039
-2.337600   0.000000    0.000039
-2.336400   0.000000    0.000039
-2.335200   0.000000    0.000040
-2.334000   0.000000    0.000040
-2.332800   0.000000    0.000041
-2.331600   0.000000    0.000041
-2.330400   0.000000    0.000042
-2.329200   0.000000    0.000042
-2.328000   0.000000    0.000042
-2.326800   0.000000    0.000043
-2.325600   0.000000    0.000043
-2.324400   0.000000    0.000044
-2.323200   0.000000    0.000044
-2.322000   0.000042    0.000045
-2.320800   0.000000    0.000045
-2.319600   0.000042    0.000045
-2.318400   0.000000    0.000046
-2.317200   0.000000    0.000046
-2.316000   0.000000    0.000047
-2.314800   0.000000    0.000047
-2.313600   0.000000    0.000048
-2.312400   0.000000    0.000048
-2.311200   0.000000    0.000049
-2.310000   0.000000    0.000049
-2.308800   0.000000    0.000050
-2.307600   0.000000    0.000050
-2.306400   0.000000    0.000051
-2.305200   0.000000    0.000051
-2.304000   0.000000    0.000052
-2.302800   0.000000    0.000052
-2.301600   0.000042    0.000053
-2.300400   0.000000    0.000053
-2.299200   0.000000    0.000054
-2.298000   0.000000    0.000054
-2.296800   0.000000    0.000055
-2.295600   0.000000    0.000056
-2.294400   0.000000    0.000056
-2.293200   0.000000    0.000057
-2.292000   0.000000    0.000057
-2.290800   0.000000    0.000058
-2.289600   0.000000    0.000058
-2.288400   0.000000    0.000059
-2.287200   0.000042    0.000060
-2.286000   0.000000    0.000060
-2.284800   0.000000    0.000061
-2.283600   0.000000    0.000061
-2.282400   0.000000    0.000062
-2.281200   0.000000    0.000063
-2.280000   0.000000    0.000063
-2.278800   0.000000    0.000064
-2.277600   0.000000    0.000064
-2.276400   0.000000    0.000065
-2.275200   0.000000    0.000066
-2.274000   0.000000    0.000066
-2.272800   0.000000    0.000067
-2.271600   0.000000    0.000068
-2.270400   0.000000    0.000068
-2.269200   0.000000    0.000069
-2.268000   0.000042    0.000070
-2.266800   0.000000    0.000070
-2.265600   0.000000    0.000071
-2.264400   0.000000    0.000072
-2.263200   0.000000    0.000073
-2.262000   0.000000    0.000073
-2.260800   0.000000    0.000074
-2.259600   0.000000    0.000075
-2.258400   0.000000    0.000075
-2.257200   0.000000    0.000076
-2.256000   0.000042    0.000077
-2.254800   0.000000    0.000078
-2.253600   0.000000    0.000078
-2.252400   0.000000    0.000079
-2.251200   0.000000    0.000080
-2.250000   0.000000    0.000081
-2.248800   0.000000    0.000082
-2.247600   0.000042    0.000082
-2.246400   0.000000    0.000083
-2.245200   0.000000    0.000084
-2.244000   0.000000    0.000085
-2.242800   0.000000    0.000086
-2.241600   0.000000    0.000086
-2.240400   0.000083    0.000087
-2.239200   0.000000    0.000088
-2.238000   0.000000    0.000089
-2.236800   0.000000    0.000090
-2.235600   0.000000    0.000091
-2.234400   0.000000    0.000092
-2.233200   0.000000    0.000093
-2.232000   0.000000    0.000093
-2.230800   0.000000    0.000094
-2.229600   0.000000    0.000095
-2.228400   0.000000    0.000096
-2.227200   0.000000    0.000097
-2.226000   0.000000    0.000098
-2.224800   0.000000    0.000099
-2.223600   0.000042    0.000100
-2.222400   0.000000    0.000101
-2.221200   0.000000    0.000102
-2.220000   0.000000    0.000103
-2.218800   0.000000    0.000104
-2.217600   0.000000    0.000105
-2.216400   0.000000    0.000106
-2.215200   0.000000    0.000107
-2.214000   0.000042    0.000108
-2.212800   0.000000    0.000109
-2.211600   0.000000    0.000110
-2.210400   0.000000    0.000111
-2.209200   0.000000    0.000112
-2.208000   0.000042    0.000113
-2.206800   0.000083    0.000114
-2.205600   0.000000    0.000115
-2.204400   0.000000    0.000117
-2.203200   0.000000    0.000118
-2.202000   0.000000    0.000119
-2.200800   0.000042    0.000120
-2.199600   0.000042    0.000121
-2.198400   0.000000    0.000122
-2.197200   0.000083    0.000123
-2.196000   0.000042    0.000125
-2.194800   0.000000    0.000126
-2.193600   0.000000    0.000127
-2.192400   0.000000    0.000128
-2.191200   0.000000    0.000129
-2.190000   0.000042    0.000131
-2.188800   0.000000    0.000132
-2.187600   0.000042    0.000133
-2.186400   0.000000    0.000134
-2.185200   0.000000    0.000136
-2.184000   0.000042    0.000137
-2.182800   0.000000    0.000138
-2.181600   0.000000    0.000140
-2.180400   0.000000    0.000141
-2.179200   0.000000    0.000142
-2.178000   0.000042    0.000144
-2.176800   0.000000    0.000145
-2.175600   0.000000    0.000146
-2.174400   0.000000    0.000148
-2.173200   0.000042    0.000149
-2.172000   0.000042    0.000151
-2.170800   0.000042    0.000152
-2.169600   0.000042    0.000153
-2.168400   0.000000    0.000155
-2.167200   0.000000    0.000156
-2.166000   0.000042    0.000158
-2.164800   0.000000    0.000159
-2.163600   0.000000    0.000161
-2.162400   0.000042    0.000162
-2.161200   0.000000    0.000164
-2.160000   0.000000    0.000165
-2.158800   0.000042    0.000167
-2.157600   0.000000    0.000169
-2.156400   0.000000    0.000170
-2.155200   0.000000    0.000172
-2.154000   0.000000    0.000173
-2.152800   0.000000    0.000175
-2.151600   0.000000    0.000177
-2.150400   0.000083    0.000178
-2.149200   0.000000    0.000180
-2.148000   0.000000    0.000182
-2.146800   0.000000    0.000183
-2.145600   0.000083    0.000185
-2.144400   0.000000    0.000187
-2.143200   0.000042    0.000189
-2.142000   0.000000    0.000190
-2.140800   0.000000    0.000192
-2.139600   0.000083    0.000194
-2.138400   0.000042    0.000196
-2.137200   0.000000    0.000198
-2.136000   0.000000    0.000199
-2.134800   0.000000    0.000201
-2.133600   0.000000    0.000203
-2.132400   0.000042    0.000205
-2.131200   0.000042    0.000207
-2.130000   0.000042    0.000209
-2.128800   0.000000    0.000211
-2.127600   0.000000    0.000213
-2.126400   0.000000    0.000215
-2.125200   0.000042    0.000217
-2.124000   0.000000    0.000219
-2.122800   0.000000    0.000221
-2.121600   0.000042    0.000223
-2.120400   0.000042    0.000225
-2.119200   0.000083    0.000227
-2.118000   0.000000    0.000229
-2.116800   0.000042    0.000231
-2.115600   0.000042    0.000233
-2.114400   0.000000    0.000235
-2.113200   0.000042    0.000237
-2.112000   0.000000    0.000240
-2.110800   0.000000    0.000242
-2.109600   0.000000    0.000244
-2.108400   0.000000    0.000246
-2.107200   0.000125    0.000249
-2.106000   0.000125    0.000251
-2.104800   0.000000    0.000253
-2.103600   0.000000    0.000256
-2.102400   0.000000    0.000258
-2.101200   0.000042    0.000260
-2.100000   0.000000    0.000263
-2.098800   0.000083    0.000265
-2.097600   0.000042    0.000267
-2.096400   0.000042    0.000270
-2.095200   0.000042    0.000272
-2.094000   0.000000    0.000275
-2.092800   0.000000    0.000277
-2.091600   0.000000    0.000280
-2.090400   0.000000    0.000282
-2.089200   0.000042    0.000285
-2.088000   0.000000    0.000288
-2.086800   0.000042    0.000290
-2.085600   0.000000    0.000293
-2.084400   0.000042    0.000295
-2.083200   0.000083    0.000298
-2.082000   0.000000    0.000301
-2.080800   0.000042    0.000304
-2.079600   0.000083    0.000306
-2.078400   0.000125    0.000309
-2.077200   0.000083    0.000312
-2.076000   0.000125    0.000315
-2.074800   0.000083    0.000318
-2.073600   0.000000    0.000320
-2.072400   0.000083    0.000323
-2.071200   0.000042    0.000326
-2.070000   0.000042    0.000329
-2.068800   0.000083    0.000332
-2.067600   0.000000    0.000335
-2.066400   0.000042    0.000338
-2.065200   0.000083    0.000341
-2.064000   0.000042    0.000344
-2.062800   0.000000    0.000347
-2.061600   0.000042    0.000351
-2.060400   0.000042    0.000354
-2.059200   0.000042    0.000357
-2.058000   0.000083    0.000360
-2.056800   0.000000    0.000363
-2.055600   0.000083    0.000367
-2.054400   0.000000    0.000370
-2.053200   0.000000    0.000373
-2.052000   0.000000    0.000376
-2.050800   0.000167    0.000380
-2.049600   0.000000    0.000383
-2.048400   0.000000    0.000387
-2.047200   0.000000    0.000390
-2.046000   0.000083    0.000394
-2.044800   0.000125    0.000397
-2.043600   0.000125    0.000401
-2.042400   0.000042    0.000404
-2.041200   0.000125    0.000408
-2.040000   0.000125    0.000411
-2.038800   0.000042    0.000415
-2.037600   0.000042    0.000419
-2.036400   0.000083    0.000422
-2.035200   0.000083    0.000426
-2.034000   0.000083    0.000430
-2.032800   0.000083    0.000434
-2.031600   0.000083    0.000438
-2.030400   0.000083    0.000441
-2.029200   0.000167    0.000445
-2.028000   0.000125    0.000449
-2.026800   0.000125    0.000453
-2.025600   0.000167    0.000457
-2.024400   0.000208    0.000461
-2.023200   0.000083    0.000465
-2.022000   0.000042    0.000469
-2.020800   0.000125    0.000474
-2.019600   0.000125    0.000478
-2.018400   0.000417    0.000482
-2.017200   0.000125    0.000486
-2.016000   0.000083    0.000490
-2.014800   0.000167    0.000495
-2.013600   0.000000    0.000499
-2.012400   0.000042    0.000503
-2.011200   0.000125    0.000508
-2.010000   0.000167    0.000512
-2.008800   0.000125    0.000517
-2.007600   0.000083    0.000521
-2.006400   0.000250    0.000526
-2.005200   0.000125    0.000530
-2.004000   0.000167    0.000535
-2.002800   0.000000    0.000540
-2.001600   0.000042    0.000545
-2.000400   0.000167    0.000549
-1.999200   0.000042    0.000554
-1.998000   0.000125    0.000559
-1.996800   0.000292    0.000564
-1.995600   0.000208    0.000569
-1.994400   0.000167    0.000574
-1.993200   0.000125    0.000579
-1.992000   0.000167    0.000584
-1.990800   0.000167    0.000589
-1.989600   0.000208    0.000594
-1.988400   0.000083    0.000599
-1.987200   0.000167    0.000604
-1.986000   0.000167    0.000609
-1.984800   0.000125    0.000615
-1.983600   0.000167    0.000620
-1.982400   0.000167    0.000625
-1.981200   0.000083    0.000631
-1.980000   0.000250    0.000636
-1.978800   0.000083    0.000642
-1.977600   0.000125    0.000647
-1.976400   0.000292    0.000653
-1.975200   0.000167    0.000658
-1.974000   0.000208    0.000664
-1.972800   0.000208    0.000670
-1.971600   0.000083    0.000675
-1.970400   0.000083    0.000681
-1.969200   0.000250    0.000687
-1.968000   0.000292    0.000693
-1.966800   0.000167    0.000699
-1.965600   0.000125    0.000705
-1.964400   0.000083    0.000711
-1.963200   0.000125    0.000717
-1.962000   0.000083    0.000723
-1.960800   0.000167    0.000729
-1.959600   0.000083    0.000735
-1.958400   0.000125    0.000742
-1.957200   0.000125    0.000748
-1.956000   0.000125    0.000754
-1.954800   0.000083    0.000761
-1.953600   0.000208    0.000767
-1.952400   0.000167    0.000774
-1.951200   0.000333    0.000780
-1.950000   0.000292    0.000787
-1.948800   0.000167    0.000794
-1.947600   0.000083    0.000800
-1.946400   0.000333    0.000807
-1.945200   0.000250    0.000814
-1.944000   0.000375    0.000821
-1.942800   0.000208    0.000828
-1.941600   0.000292    0.000835
-1.940400   0.000375    0.000842
-1.939200   0.000333    0.000849
-1.938000   0.000375    0.000856
-1.936800   0.000167    0.000864
-1.935600   0.000458    0.000871
-1.934400   0.000292    0.000878
-1.933200   0.000500    0.000886
-1.932000   0.000333    0.000893
-1.930800   0.000250    0.000900
-1.929600   0.000375    0.000908
-1.928400   0.000333    0.000916
-1.927200   0.000333    0.000923
-1.926000   0.000250    0.000931
-1.924800   0.000417    0.000939
-1.923600   0.000208    0.000947
-1.922400   0.000292    0.000955
-1.921200   0.000458    0.000963
-1.920000   0.000542    0.000971
-1.918800   0.000375    0.000979
-1.917600   0.000333    0.000987
-1.916400   0.000500    0.000995
-1.915200   0.000417    0.001004
-1.914000   0.000583    0.001012
-1.912800   0.000250    0.001020
-1.911600   0.000458    0.001029
-1.910400   0.000583    0.001037
-1.909200   0.000375    0.001046
-1.908000   0.000542    0.001055
-1.906800   0.000500    0.001064
-1.905600   0.000333    0.001072
-1.904400   0.000542    0.001081
-1.903200   0.000333    0.001090
-1.902000   0.000458    0.001099
-1.900800   0.000500    0.001108
-1.899600   0.000250    0.001118
-1.898400   0.000208    0.001127
-1.897200   0.000792    0.001136
-1.896000   0.000292    0.001145
-1.894800   0.000292    0.001155
-1.893600   0.000458    0.001164
-1.892400   0.000417    0.001174
-1.891200   0.000333    0.001184
-1.890000   0.000458    0.001193
-1.888800   0.000542    0.001203
-1.887600   0.000292    0.001213
-1.886400   0.000458    0.001223
-1.885200   0.000333    0.001233
-1.884000   0.000542    0.001243
-1.882800   0.000292    0.001253
-1.881600   0.000583    0.001264
-1.880400   0.000583    0.001274
-1.879200   0.000917    0.001285
-1.878000   0.000625    0.001295
-1.876800   0.000625    0.001306
-1.875600   0.000500    0.001316
-1.874400   0.000500    0.001327
-1.873200   0.000625    0.001338
-1.872000   0.000625    0.001349
-1.870800   0.000375    0.001360
-1.869600   0.000250    0.001371
-1.868400   0.000625    0.001382
-1.867200   0.000208    0.001393
-1.866000   0.000583    0.001405
-1.864800   0.000417    0.001416
-1.863600   0.000792    0.001427
-1.862400   0.000333    0.001439
-1.861200   0.000500    0.001451
-1.860000   0.000625    0.001462
-1.858800   0.000708    0.001474
-1.857600   0.000792    0.001486
-1.856400   0.000417    0.001498
-1.855200   0.000750    0.001510
-1.854000   0.000500    0.001523
-1.852800   0.000458    0.001535
-1.851600   0.000792    0.001547
-1.850400   0.000333    0.001560
-1.849200   0.000750    0.001572
-1.848000   0.000833    0.001585
-1.846800   0.000750    0.001598
-1.845600   0.000708    0.001610
-1.844400   0.000583    0.001623
-1.843200   0.000583    0.001636
-1.842000   0.000792    0.001650
-1.840800   0.000583    0.001663
-1.839600   0.000375    0.001676
-1.838400   0.000500    0.001690
-1.837200   0.000458    0.001703
-1.836000   0.000625    0.001717
-1.834800   0.000708    0.001730
-1.833600   0.000833    0.001744
-1.832400   0.000833    0.001758
-1.831200   0.000875    0.001772
-1.830000   0.000750    0.001786
-1.828800   0.000625    0.001801
-1.827600   0.000958    0.001815
-1.826400   0.001125    0.001829
-1.825200   0.000958    0.001844
-1.824000   0.000875    0.001858
-1.822800   0.000750    0.001873
-1.821600   0.001083    0.001888
-1.820400   0.000917    0.001903
-1.819200   0.001167    0.001918
-1.818000   0.001000    0.001933
-1.816800   0.001125    0.001949
-1.815600   0.001000    0.001964
-1.814400   0.001083    0.001980
-1.813200   0.000833    0.001995
-1.812000   0.000833    0.002011
-1.810800   0.001000    0.002027
-1.809600   0.000875    0.002043
-1.808400   0.001042    0.002059
-1.807200   0.001083    0.002075
-1.806000   0.001125    0.002091
-1.804800   0.000917    0.002108
-1.803600   0.001583    0.002124
-1.802400   0.001042    0.002141
-1.801200   0.001375    0.002158
-1.800000   0.000875    0.002175
-1.798800   0.001125    0.002192
-1.797600   0.001000    0.002209
-1.796400   0.001125    0.002226
-1.795200   0.000875    0.002244
-1.794000   0.001375    0.002261
-1.792800   0.001292    0.002279
-1.791600   0.001375    0.002297
-1.790400   0.001500    0.002315
-1.789200   0.001500    0.002333
-1.788000   0.001042    0.002351
-1.786800   0.001042    0.002369
-1.785600   0.001042    0.002387
-1.784400   0.000875    0.002406
-1.783200   0.001250    0.002425
-1.782000   0.001458    0.002443
-1.780800   0.001250    0.002462
-1.779600   0.000750    0.002481
-1.778400   0.001292    0.002501
-1.777200   0.001083    0.002520
-1.776000   0.001083    0.002540
-1.774800   0.001250    0.002559
-1.773600   0.001125    0.002579
-1.772400   0.001500    0.002599
-1.771200   0.001458    0.002619
-1.770000   0.001042    0.002639
-1.768800   0.001500    0.002659
-1.767600   0.001375    0.002680
-1.766400   0.001667    0.002701
-1.765200   0.001500    0.002721
-1.764000   0.001833    0.002742
-1.762800   0.001208    0.002763
-1.761600   0.001375    0.002784
-1.760400   0.001292    0.002806
-1.759200   0.001667    0.002827
-1.758000   0.001292    0.002849
-1.756800   0.001292    0.002871
-1.755600   0.001333    0.002893
-1.754400   0.001792    0.002915
-1.753200   0.001667    0.002937
-1.752000   0.001625    0.002959
-1.750800   0.001708    0.002982
-1.749600   0.001792    0.003005
-1.748400   0.001667    0.003028
-1.747200   0.001375    0.003051
-1.746000   0.001792    0.003074
-1.744800   0.001875    0.003097
-1.743600   0.001667    0.003121
-1.742400   0.001792    0.003144
-1.741200   0.001792    0.003168
-1.740000   0.001500    0.003192
-1.738800   0.001750    0.003216
-1.737600   0.002250    0.003241
-1.736400   0.002042    0.003265
-1.735200   0.002042    0.003290
-1.734000   0.002125    0.003315
-1.732800   0.001917    0.003340
-1.731600   0.002333    0.003365
-1.730400   0.001917    0.003390
-1.729200   0.001958    0.003416
-1.728000   0.001583    0.003441
-1.726800   0.002125    0.003467
-1.725600   0.002417    0.003493
-1.724400   0.002042    0.003520
-1.723200   0.002125    0.003546
-1.722000   0.002042    0.003573
-1.720800   0.002375    0.003599
-1.719600   0.002167    0.003626
-1.718400   0.001917    0.003653
-1.717200   0.002208    0.003681
-1.716000   0.002583    0.003708
-1.714800   0.002125    0.003736
-1.713600   0.002167    0.003764
-1.712400   0.002125    0.003792
-1.711200   0.002000    0.003820
-1.710000   0.002625    0.003849
-1.708800   0.002375    0.003877
-1.707600   0.001708    0.003906
-1.706400   0.002708    0.003935
-1.705200   0.002250    0.003964
-1.704000   0.002208    0.003994
-1.702800   0.002375    0.004023
-1.701600   0.003125    0.004053
-1.700400   0.003125    0.004083
-1.699200   0.002375    0.004113
-1.698000   0.002417    0.004144
-1.696800   0.002625    0.004174
-1.695600   0.002625    0.004205
-1.694400   0.003375    0.004236
-1.693200   0.003208    0.004267
-1.692000   0.002625    0.004299
-1.690800   0.002417    0.004331
-1.689600   0.002208    0.004362
-1.688400   0.002667    0.004394
-1.687200   0.002792    0.004427
-1.686000   0.002917    0.004459
-1.684800   0.002708    0.004492
-1.683600   0.003208    0.004525
-1.682400   0.003583    0.004558
-1.681200   0.003000    0.004591
-1.680000   0.002958    0.004625
-1.678800   0.003333    0.004659
-1.677600   0.002958    0.004693
-1.676400   0.003042    0.004727
-1.675200   0.002875    0.004762
-1.674000   0.003375    0.004796
-1.672800   0.003000    0.004831
-1.671600   0.002917    0.004866
-1.670400   0.002917    0.004902
-1.669200   0.002875    0.004937
-1.668000   0.003125    0.004973
-1.666800   0.003042    0.005009
-1.665600   0.002833    0.005046
-1.664400   0.003583    0.005082
-1.663200   0.003625    0.005119
-1.662000   0.003125    0.005156
-1.660800   0.003542    0.005193
-1.659600   0.003000    0.005231
-1.658400   0.002833    0.005269
-1.657200   0.003292    0.005307
-1.656000   0.004625    0.005345
-1.654800   0.003083    0.005383
-1.653600   0.003667    0.005422
-1.652400   0.003125    0.005461
-1.651200   0.003542    0.005500
-1.650000   0.003042    0.005540
-1.648800   0.003500    0.005580
-1.647600   0.004500    0.005620
-1.646400   0.003792    0.005660
-1.645200   0.004083    0.005701
-1.644000   0.003667    0.005741
-1.642800   0.004000    0.005782
-1.641600   0.003708    0.005824
-1.640400   0.004000    0.005865
-1.639200   0.004417    0.005907
-1.638000   0.004292    0.005949
-1.636800   0.004125    0.005992
-1.635600   0.004167    0.006034
-1.634400   0.004750    0.006077
-1.633200   0.003750    0.006120
-1.632000   0.004333    0.006164
-1.630800   0.003792    0.006208
-1.629600   0.004333    0.006252
-1.628400   0.004542    0.006296
-1.627200   0.004292    0.006341
-1.626000   0.004500    0.006386
-1.624800   0.004917    0.006431
-1.623600   0.004500    0.006476
-1.622400   0.004375    0.006522
-1.621200   0.004458    0.006568
-1.620000   0.004167    0.006614
-1.618800   0.005083    0.006661
-1.617600   0.004458    0.006708
-1.616400   0.005333    0.006755
-1.615200   0.004833    0.006802
-1.614000   0.004542    0.006850
-1.612800   0.004417    0.006898
-1.611600   0.005708    0.006947
-1.610400   0.005500    0.006995
-1.609200   0.005583    0.007044
-1.608000   0.004542    0.007094
-1.606800   0.005417    0.007143
-1.605600   0.005167    0.007193
-1.604400   0.005292    0.007244
-1.603200   0.004542    0.007294
-1.602000   0.005750    0.007345
-1.600800   0.005458    0.007396
-1.599600   0.004167    0.007448
-1.598400   0.005125    0.007500
-1.597200   0.004833    0.007552
-1.596000   0.005375    0.007604
-1.594800   0.005375    0.007657
-1.593600   0.005875    0.007710
-1.592400   0.005875    0.007763
-1.591200   0.006250    0.007817
-1.590000   0.005333    0.007871
-1.588800   0.006333    0.007926
-1.587600   0.005958    0.007981
-1.586400   0.005458    0.008036
-1.585200   0.006333    0.008091
-1.584000   0.005583    0.008147
-1.582800   0.005833    0.008203
-1.581600   0.006458    0.008260
-1.580400   0.005833    0.008316
-1.579200   0.006667    0.008374
-1.578000   0.006750    0.008431
-1.576800   0.005625    0.008489
-1.575600   0.006500    0.008547
-1.574400   0.006375    0.008606
-1.573200   0.006375    0.008665
-1.572000   0.007125    0.008724
-1.570800   0.006583    0.008784
-1.569600   0.006167    0.008844
-1.568400   0.005458    0.008904
-1.567200   0.006792    0.008965
-1.566000   0.008000    0.009026
-1.564800   0.007792    0.009087
-1.563600   0.006958    0.009149
-1.562400   0.007042    0.009211
-1.561200   0.007292    0.009274
-1.560000   0.007333    0.009337
-1.558800   0.006792    0.009400
-1.557600   0.006625    0.009464
-1.556400   0.007000    0.009528
-1.555200   0.008042    0.009593
-1.554000   0.007833    0.009658
-1.552800   0.007833    0.009723
-1.551600   0.007125    0.009788
-1.550400   0.008500    0.009855
-1.549200   0.008083    0.009921
-1.548000   0.007708    0.009988
-1.546800   0.007917    0.010055
-1.545600   0.008875    0.010123
-1.544400   0.007875    0.010191
-1.543200   0.008208    0.010259
-1.542000   0.007375    0.010328
-1.540800   0.008458    0.010397
-1.539600   0.007167    0.010467
-1.538400   0.006542    0.010537
-1.537200   0.009375    0.010608
-1.536000   0.007417    0.010679
-1.534800   0.009375    0.010750
-1.533600   0.009333    0.010822
-1.532400   0.008875    0.010894
-1.531200   0.008625    0.010966
-1.530000   0.009625    0.011039
-1.528800   0.009125    0.011113
-1.527600   0.009625    0.011187
-1.526400   0.007958    0.011261
-1.525200   0.010083    0.011336
-1.524000   0.009208    0.011411
-1.522800   0.008167    0.011487
-1.521600   0.008792    0.011563
-1.520400   0.008750    0.011639
-1.519200   0.009792    0.011716
-1.518000   0.009083    0.011794
-1.516800   0.009375    0.011872
-1.515600   0.009417    0.011950
-1.514400   0.009042    0.012029
-1.513200   0.010042    0.012108
-1.512000   0.010167    0.012188
-1.510800   0.010500    0.012268
-1.509600   0.009125    0.012348
-1.508400   0.011500    0.012429
-1.507200   0.010083    0.012511
-1.506000   0.011125    0.012593
-1.504800   0.011500    0.012675
-1.503600   0.010458    0.012758
-1.502400   0.011125    0.012842
-1.501200   0.010792    0.012926
-1.500000   0.010583    0.013010
-1.498800   0.010833    0.013095
-1.497600   0.011583    0.013180
-1.496400   0.011792    0.013266
-1.495200   0.011042    0.013352
-1.494000   0.011208    0.013439
-1.492800   0.009917    0.013527
-1.491600   0.011792    0.013614
-1.490400   0.011375    0.013703
-1.489200   0.012125    0.013792
-1.488000   0.011167    0.013881
-1.486800   0.011292    0.013971
-1.485600   0.011375    0.014061
-1.484400   0.012958    0.014152
-1.483200   0.011083    0.014243
-1.482000   0.010708    0.014335
-1.480800   0.010792    0.014427
-1.479600   0.011958    0.014520
-1.478400   0.013000    0.014614
-1.477200   0.011875    0.014708
-1.476000   0.013083    0.014802
-1.474800   0.011875    0.014897
-1.473600   0.012667    0.014993
-1.472400   0.013625    0.015089
-1.471200   0.012750    0.015185
-1.470000   0.012167    0.015283
-1.468800   0.013458    0.015380
-1.467600   0.012417    0.015479
-1.466400   0.013000    0.015577
-1.465200   0.013917    0.015677
-1.464000   0.015125    0.015777
-1.462800   0.013000    0.015877
-1.461600   0.011542    0.015978
-1.460400   0.012750    0.016080
-1.459200   0.014542    0.016182
-1.458000   0.013458    0.016284
-1.456800   0.014292    0.016388
-1.455600   0.015000    0.016491
-1.454400   0.014417    0.016596
-1.453200   0.015292    0.016701
-1.452000   0.014333    0.016806
-1.450800   0.015667    0.016912
-1.449600   0.014167    0.017019
-1.448400   0.014167    0.017126
-1.447200   0.015625    0.017234
-1.446000   0.015458    0.017343
-1.444800   0.015667    0.017452
-1.443600   0.016208    0.017561
-1.442400   0.015208    0.017672
-1.441200   0.015042    0.017782
-1.440000   0.015000    0.017894
-1.438800   0.015750    0.018006
-1.437600   0.017500    0.018119
-1.436400   0.015042    0.018232
-1.435200   0.016583    0.018346
-1.434000   0.015375    0.018460
-1.432800   0.016250    0.018575
-1.431600   0.016167    0.018691
-1.430400   0.018125    0.018807
-1.429200   0.016458    0.018924
-1.428000   0.015917    0.019042
-1.426800   0.016208    0.019160
-1.425600   0.017625    0.019279
-1.424400   0.018042    0.019398
-1.423200   0.017292    0.019519
-1.422000   0.015583    0.019639
-1.420800   0.016875    0.019761
-1.419600   0.017583    0.019883
-1.418400   0.017458    0.020006
-1.417200   0.017333    0.020129
-1.416000   0.017875    0.020253
-1.414800   0.016625    0.020378
-1.413600   0.018042    0.020503
-1.412400   0.018292    0.020629
-1.411200   0.018625    0.020756
-1.410000   0.019292    0.020883
-1.408800   0.018792    0.021011
-1.407600   0.018542    0.021140
-1.406400   0.017625    0.021269
-1.405200   0.019542    0.021399
-1.404000   0.020667    0.021530
-1.402800   0.020333    0.021661
-1.401600   0.022750    0.021794
-1.400400   0.020917    0.021926
-1.399200   0.018667    0.022060
-1.398000   0.021208    0.022194
-1.396800   0.019500    0.022329
-1.395600   0.019875    0.022465
-1.394400   0.020458    0.022601
-1.393200   0.021542    0.022738
-1.392000   0.020583    0.022876
-1.390800   0.021125    0.023014
-1.389600   0.023667    0.023153
-1.388400   0.021250    0.023293
-1.387200   0.021458    0.023434
-1.386000   0.022042    0.023575
-1.384800   0.021375    0.023717
-1.383600   0.022500    0.023860
-1.382400   0.021458    0.024003
-1.381200   0.022000    0.024148
-1.380000   0.023042    0.024293
-1.378800   0.022792    0.024439
-1.377600   0.022500    0.024585
-1.376400   0.024000    0.024732
-1.375200   0.022167    0.024880
-1.374000   0.022833    0.025029
-1.372800   0.024542    0.025179
-1.371600   0.024375    0.025329
-1.370400   0.023083    0.025480
-1.369200   0.023000    0.025632
-1.368000   0.023583    0.025784
-1.366800   0.025292    0.025938
-1.365600   0.024083    0.026092
-1.364400   0.024375    0.026247
-1.363200   0.024417    0.026402
-1.362000   0.023542    0.026559
-1.360800   0.024833    0.026716
-1.359600   0.026375    0.026874
-1.358400   0.026042    0.027033
-1.357200   0.025042    0.027193
-1.356000   0.024792    0.027353
-1.354800   0.026458    0.027514
-1.353600   0.025125    0.027676
-1.352400   0.026667    0.027839
-1.351200   0.027667    0.028003
-1.350000   0.026917    0.028167
-1.348800   0.026750    0.028333
-1.347600   0.026292    0.028499
-1.346400   0.029333    0.028666
-1.345200   0.028000    0.028833
-1.344000   0.026417    0.029002
-1.342800   0.027000    0.029172
-1.341600   0.029333    0.029342
-1.340400   0.027125    0.029513
-1.339200   0.030625    0.029685
-1.338000   0.026500    0.029858
-1.336800   0.028667    0.030031
-1.335600   0.029250    0.030206
-1.334400   0.027042    0.030381
-1.333200   0.029833    0.030558
-1.332000   0.027750    0.030735
-1.330800   0.028875    0.030913
-1.329600   0.030500    0.031091
-1.328400   0.029792    0.031271
-1.327200   0.029667    0.031452
-1.326000   0.030625    0.031633
-1.324800   0.031458    0.031816
-1.323600   0.029917    0.031999
-1.322400   0.030708    0.032183
-1.321200   0.031667    0.032368
-1.320000   0.032250    0.032554
-1.318800   0.030958    0.032741
-1.317600   0.032708    0.032928
-1.316400   0.031333    0.033117
-1.315200   0.033208    0.033306
-1.314000   0.031542    0.033497
-1.312800   0.031125    0.033688
-1.311600   0.033375    0.033880
-1.310400   0.032417    0.034073
-1.309200   0.033667    0.034268
-1.308000   0.031042    0.034463
-1.306800   0.035333    0.034659
-1.305600   0.033333    0.034855
-1.304400   0.035917    0.035053
-1.303200   0.035167    0.035252
-1.302000   0.034042    0.035452
-1.300800   0.035042    0.035652
-1.299600   0.033708    0.035854
-1.298400   0.035708    0.036056
-1.297200   0.033625    0.036260
-1.296000   0.035958    0.036464
-1.294800   0.036333    0.036670
-1.293600   0.037375    0.036876
-1.292400   0.035042    0.037083
-1.291200   0.037917    0.037292
-1.290000   0.035792    0.037501
-1.288800   0.035667    0.037711
-1.287600   0.036583    0.037923
-1.286400   0.036292    0.038135
-1.285200   0.036417    0.038348
-1.284000   0.037917    0.038562
-1.282800   0.037708    0.038778
-1.281600   0.039833    0.038994
-1.280400   0.039875    0.039211
-1.279200   0.039500    0.039429
-1.278000   0.038542    0.039648
-1.276800   0.038792    0.039869
-1.275600   0.040083    0.040090
-1.274400   0.037667    0.040312
-1.273200   0.041833    0.040535
-1.272000   0.038250    0.040760
-1.270800   0.040917    0.040985
-1.269600   0.038625    0.041212
-1.268400   0.038625    0.041439
-1.267200   0.040917    0.041667
-1.266000   0.040958    0.041897
-1.264800   0.044000    0.042127
-1.263600   0.041750    0.042359
-1.262400   0.040292    0.042592
-1.261200   0.041792    0.042825
-1.260000   0.042000    0.043060
-1.258800   0.042583    0.043296
-1.257600   0.042792    0.043533
-1.256400   0.041958    0.043771
-1.255200   0.045000    0.044010
-1.254000   0.043000    0.044250
-1.252800   0.043833    0.044491
-1.251600   0.046875    0.044733
-1.250400   0.040750    0.044977
-1.249200   0.044708    0.045221
-1.248000   0.044292    0.045467
-1.246800   0.047042    0.045713
-1.245600   0.045833    0.045961
-1.244400   0.046458    0.046210
-1.243200   0.046125    0.046460
-1.242000   0.045500    0.046711
-1.240800   0.044625    0.046963
-1.239600   0.047167    0.047216
-1.238400   0.048042    0.047470
-1.237200   0.045583    0.047726
-1.236000   0.048833    0.047982
-1.234800   0.048083    0.048240
-1.233600   0.048417    0.048499
-1.232400   0.046333    0.048759
-1.231200   0.051542    0.049020
-1.230000   0.048583    0.049283
-1.228800   0.048417    0.049546
-1.227600   0.047208    0.049811
-1.226400   0.050958    0.050076
-1.225200   0.050417    0.050343
-1.224000   0.051000    0.050611
-1.222800   0.051292    0.050880
-1.221600   0.049917    0.051151
-1.220400   0.052958    0.051422
-1.219200   0.052833    0.051695
-1.218000   0.050625    0.051969
-1.216800   0.050500    0.052244
-1.215600   0.052333    0.052520
-1.214400   0.055667    0.052798
-1.213200   0.052625    0.053076
-1.212000   0.054208    0.053356
-1.210800   0.052875    0.053637
-1.209600   0.058083    0.053920
-1.208400   0.055625    0.054203
-1.207200   0.055875    0.054488
-1.206000   0.053083    0.054774
-1.204800   0.057792    0.055061
-1.203600   0.057250    0.055349
-1.202400   0.054708    0.055638
-1.201200   0.054833    0.055929
-1.200000   0.057750    0.056221
-1.198800   0.058458    0.056514
-1.197600   0.057958    0.056809
-1.196400   0.057292    0.057104
-1.195200   0.056667    0.057401
-1.194000   0.056958    0.057699
-1.192800   0.058375    0.057999
-1.191600   0.059708    0.058299
-1.190400   0.057542    0.058601
-1.189200   0.060208    0.058904
-1.188000   0.057208    0.059209
-1.186800   0.060625    0.059514
-1.185600   0.059750    0.059821
-1.184400   0.060333    0.060129
-1.183200   0.064125    0.060439
-1.182000   0.059208    0.060750
-1.180800   0.060625    0.061062
-1.179600   0.062625    0.061375
-1.178400   0.062667    0.061690
-1.177200   0.064292    0.062006
-1.176000   0.062958    0.062323
-1.174800   0.062917    0.062641
-1.173600   0.060208    0.062961
-1.172400   0.064833    0.063282
-1.171200   0.064208    0.063604
-1.170000   0.063833    0.063928
-1.168800   0.065750    0.064253
-1.167600   0.065583    0.064579
-1.166400   0.064833    0.064907
-1.165200   0.066375    0.065236
-1.164000   0.064042    0.065566
-1.162800   0.068125    0.065898
-1.161600   0.068417    0.066231
-1.160400   0.068125    0.066565
-1.159200   0.070000    0.066901
-1.158000   0.071833    0.067238
-1.156800   0.069833    0.067576
-1.155600   0.073167    0.067916
-1.154400   0.070208    0.068257
-1.153200   0.070625    0.068599
-1.152000   0.068833    0.068943
-1.150800   0.070500    0.069288
-1.149600   0.071750    0.069635
-1.148400   0.067917    0.069982
-1.147200   0.070625    0.070332
-1.146000   0.071708    0.070682
-1.144800   0.072750    0.071034
-1.143600   0.075042    0.071387
-1.142400   0.078542    0.071742
-1.141200   0.074875    0.072098
-1.140000   0.074208    0.072456
-1.138800   0.071917    0.072815
-1.137600   0.075292    0.073175
-1.136400   0.074083    0.073537
-1.135200   0.073458    0.073900
-1.134000   0.078292    0.074264
-1.132800   0.075917    0.074630
-1.131600   0.079125    0.074997
-1.130400   0.078833    0.075366
-1.129200   0.078792    0.075736
-1.128000   0.077708    0.076108
-1.126800   0.078292    0.076481
-1.125600   0.079208    0.076855
-1.124400   0.079833    0.077231
-1.123200   0.079000    0.077608
-1.122000   0.079625    0.077987
-1.120800   0.078500    0.078367
-1.119600   0.082333    0.078749
-1.118400   0.080000    0.079132
-1.117200   0.085958    0.079517
-1.116000   0.079333    0.079903
-1.114800   0.084167    0.080290
-1.113600   0.083208    0.080679
-1.112400   0.081833    0.081069
-1.111200   0.083333    0.081461
-1.110000   0.085375    0.081854
-1.108800   0.086000    0.082249
-1.107600   0.089000    0.082645
-1.106400   0.090000    0.083043
-1.105200   0.085500    0.083442
-1.104000   0.088500    0.083843
-1.102800   0.082000    0.084245
-1.101600   0.087042    0.084648
-1.100400   0.087042    0.085054
-1.099200   0.089750    0.085460
-1.098000   0.086583    0.085868
-1.096800   0.091167    0.086278
-1.095600   0.088083    0.086689
-1.094400   0.091833    0.087102
-1.093200   0.089000    0.087516
-1.092000   0.091833    0.087931
-1.090800   0.090208    0.088349
-1.089600   0.093083    0.088767
-1.088400   0.092042    0.089187
-1.087200   0.095708    0.089609
-1.086000   0.096167    0.090032
-1.084800   0.091958    0.090457
-1.083600   0.094750    0.090883
-1.082400   0.092625    0.091311
-1.081200   0.097792    0.091741
-1.080000   0.093875    0.092172
-1.078800   0.094167    0.092604
-1.077600   0.098583    0.093038
-1.076400   0.097583    0.093474
-1.075200   0.095417    0.093911
-1.074000   0.098292    0.094349
-1.072800   0.096375    0.094789
-1.071600   0.100625    0.095231
-1.070400   0.098875    0.095675
-1.069200   0.096417    0.096119
-1.068000   0.100750    0.096566
-1.066800   0.104125    0.097014
-1.065600   0.100667    0.097463
-1.064400   0.098958    0.097915
-1.063200   0.102750    0.098367
-1.062000   0.101667    0.098822
-1.060800   0.101708    0.099278
-1.059600   0.102083    0.099735
-1.058400   0.107542    0.100194
-1.057200   0.101958    0.100655
-1.056000   0.105417    0.101117
-1.054800   0.108708    0.101581
-1.053600   0.105167    0.102046
-1.052400   0.107042    0.102513
-1.051200   0.107333    0.102982
-1.050000   0.108375    0.103452
-1.048800   0.108292    0.103924
-1.047600   0.106708    0.104398
-1.046400   0.111042    0.104873
-1.045200   0.108458    0.105349
-1.044000   0.111667    0.105828
-1.042800   0.110917    0.106308
-1.041600   0.110083    0.106789
-1.040400   0.107083    0.107272
-1.039200   0.110333    0.107757
-1.038000   0.116042    0.108244
-1.036800   0.113458    0.108732
-1.035600   0.110583    0.109221
-1.034400   0.118042    0.109713
-1.033200   0.116458    0.110206
-1.032000   0.117750    0.110700
-1.030800   0.112583    0.111196
-1.029600   0.119333    0.111694
-1.028400   0.118375    0.112194
-1.027200   0.116125    0.112695
-1.026000   0.117792    0.113198
-1.024800   0.116500    0.113702
-1.023600   0.118583    0.114208
-1.022400   0.115917    0.114716
-1.021200   0.123542    0.115226
-1.020000   0.119458    0.115737
-1.018800   0.124500    0.116249
-1.017600   0.123208    0.116764
-1.016400   0.120042    0.117280
-1.015200   0.125000    0.117798
-1.014000   0.125500    0.118317
-1.012800   0.126542    0.118838
-1.011600   0.128125    0.119361
-1.010400   0.126625    0.119885
-1.009200   0.123708    0.120412
-1.008000   0.129542    0.120939
-1.006800   0.130417    0.121469
-1.005600   0.130667    0.122000
-1.004400   0.124792    0.122533
-1.003200   0.128000    0.123067
-1.002000   0.127917    0.123604
-1.000800   0.130833    0.124142
-0.999600   0.127292    0.124681
-0.998400   0.130167    0.125223
-0.997200   0.134417    0.125766
-0.996000   0.133167    0.126310
-0.994800   0.135667    0.126857
-0.993600   0.134333    0.127405
-0.992400   0.134833    0.127955
-0.991200   0.137333    0.128506
-0.990000   0.134708    0.129059
-0.988800   0.137958    0.129614
-0.987600   0.137167    0.130171
-0.986400   0.135167    0.130729
-0.985200   0.141958    0.131289
-0.984000   0.141708    0.131851
-0.982800   0.139083    0.132415
-0.981600   0.136000    0.132980
-0.980400   0.140625    0.133547
-0.979200   0.138625    0.134115
-0.978000   0.141417    0.134686
-0.976800   0.144625    0.135258
-0.975600   0.146708    0.135832
-0.974400   0.146208    0.136407
-0.973200   0.144708    0.136984
-0.972000   0.143167    0.137563
-0.970800   0.146875    0.138144
-0.969600   0.146292    0.138726
-0.968400   0.143750    0.139311
-0.967200   0.147000    0.139896
-0.966000   0.150583    0.140484
-0.964800   0.147958    0.141073
-0.963600   0.148583    0.141665
-0.962400   0.148000    0.142257
-0.961200   0.149958    0.142852
-0.960000   0.151333    0.143448
-0.958800   0.152625    0.144046
-0.957600   0.148250    0.144646
-0.956400   0.156917    0.145248
-0.955200   0.155083    0.145851
-0.954000   0.153417    0.146456
-0.952800   0.154167    0.147063
-0.951600   0.158292    0.147671
-0.950400   0.154333    0.148281
-0.949200   0.156875    0.148893
-0.948000   0.156917    0.149507
-0.946800   0.160083    0.150123
-0.945600   0.161583    0.150740
-0.944400   0.161958    0.151359
-0.943200   0.158000    0.151980
-0.942000   0.162042    0.152602
-0.940800   0.159625    0.153226
-0.939600   0.164708    0.153852
-0.938400   0.157375    0.154480
-0.937200   0.160875    0.155110
-0.936000   0.164708    0.155741
-0.934800   0.161875    0.156374
-0.933600   0.169083    0.157009
-0.932400   0.166875    0.157645
-0.931200   0.165792    0.158284
-0.930000   0.171750    0.158924
-0.928800   0.168667    0.159565
-0.927600   0.166875    0.160209
-0.926400   0.169667    0.160854
-0.925200   0.175375    0.161501
-0.924000   0.168625    0.162150
-0.922800   0.170583    0.162801
-0.921600   0.172875    0.163453
-0.920400   0.169917    0.164107
-0.919200   0.173500    0.164763
-0.918000   0.176458    0.165421
-0.916800   0.177458    0.166080
-0.915600   0.172500    0.166742
-0.914400   0.166417    0.167404
-0.913200   0.177833    0.168069
-0.912000   0.179792    0.168736
-0.910800   0.175833    0.169404
-0.909600   0.174458    0.170074
-0.908400   0.178083    0.170745
-0.907200   0.179708    0.171419
-0.906000   0.178500    0.172094
-0.904800   0.182292    0.172771
-0.903600   0.177333    0.173450
-0.902400   0.182250    0.174131
-0.901200   0.183833    0.174813
-0.900000   0.186000    0.175497
-0.898800   0.187875    0.176183
-0.897600   0.186667    0.176870
-0.896400   0.185833    0.177560
-0.895200   0.189250    0.178251
-0.894000   0.187208    0.178944
-0.892800   0.188833    0.179638
-0.891600   0.191208    0.180335
-0.890400   0.189750    0.181033
-0.889200   0.185958    0.181733
-0.888000   0.193625    0.182434
-0.886800   0.188625    0.183138
-0.885600   0.188208    0.183843
-0.884400   0.195042    0.184550
-0.883200   0.195208    0.185258
-0.882000   0.195042    0.185969
-0.880800   0.197667    0.186681
-0.879600   0.197625    0.187395
-0.878400   0.192500    0.188111
-0.877200   0.196125    0.188828
-0.876000   0.196208    0.189547
-0.874800   0.196417    0.190268
-0.873600   0.200792    0.190991
-0.872400   0.205750    0.191715
-0.871200   0.202958    0.192441
-0.870000   0.206542    0.193169
-0.868800   0.200208    0.193899
-0.867600   0.205417    0.194630
-0.866400   0.207458    0.195363
-0.865200   0.208750    0.196098
-0.864000   0.205000    0.196835
-0.862800   0.210083    0.197573
-0.861600   0.212875    0.198313
-0.860400   0.205250    0.199055
-0.859200   0.205292    0.199799
-0.858000   0.211542    0.200544
-0.856800   0.211375    0.201291
-0.855600   0.208083    0.202040
-0.854400   0.211125    0.202790
-0.853200   0.210833    0.203543
-0.852000   0.215875    0.204297
-0.850800   0.215917    0.205052
-0.849600   0.215583    0.205810
-0.848400   0.213833    0.206569
-0.847200   0.217208    0.207330
-0.846000   0.218917    0.208092
-0.844800   0.217083    0.208856
-0.843600   0.218292    0.209622
-0.842400   0.220167    0.210390
-0.841200   0.219583    0.211160
-0.840000   0.223167    0.211931
-0.838800   0.220708    0.212704
-0.837600   0.220792    0.213478
-0.836400   0.225333    0.214254
-0.835200   0.220583    0.215032
-0.834000   0.226792    0.215812
-0.832800   0.225292    0.216593
-0.831600   0.225417    0.217376
-0.830400   0.233417    0.218161
-0.829200   0.229833    0.218948
-0.828000   0.234250    0.219736
-0.826800   0.229458    0.220526
-0.825600   0.225542    0.221317
-0.824400   0.232875    0.222110
-0.823200   0.230292    0.222905
-0.822000   0.236750    0.223702
-0.820800   0.242542    0.224500
-0.819600   0.234708    0.225300
-0.818400   0.235958    0.226101
-0.817200   0.240292    0.226905
-0.816000   0.244667    0.227710
-0.814800   0.236833    0.228516
-0.813600   0.239917    0.229325
-0.812400   0.237333    0.230134
-0.811200   0.244042    0.230946
-0.810000   0.241958    0.231759
-0.808800   0.245500    0.232574
-0.807600   0.244417    0.233391
-0.806400   0.248375    0.234209
-0.805200   0.248417    0.235029
-0.804000   0.246208    0.235850
-0.802800   0.243000    0.236673
-0.801600   0.246500    0.237498
-0.800400   0.253042    0.238325
-0.799200   0.252875    0.239153
-0.798000   0.255500    0.239982
-0.796800   0.255542    0.240814
-0.795600   0.256167    0.241646
-0.794400   0.246750    0.242481
-0.793200   0.257167    0.243317
-0.792000   0.260792    0.244155
-0.790800   0.260292    0.244994
-0.789600   0.255583    0.245835
-0.788400   0.255667    0.246678
-0.787200   0.259833    0.247522
-0.786000   0.259625    0.248368
-0.784800   0.258500    0.249215
-0.783600   0.263542    0.250064
-0.782400   0.261417    0.250914
-0.781200   0.267292    0.251767
-0.780000   0.260458    0.252620
-0.778800   0.262833    0.253476
-0.777600   0.260292    0.254332
-0.776400   0.267750    0.255191
-0.775200   0.267333    0.256051
-0.774000   0.272042    0.256912
-0.772800   0.268500    0.257775
-0.771600   0.260042    0.258640
-0.770400   0.269167    0.259506
-0.769200   0.271875    0.260374
-0.768000   0.269583    0.261243
-0.766800   0.274792    0.262114
-0.765600   0.269708    0.262986
-0.764400   0.276958    0.263860
-0.763200   0.277625    0.264736
-0.762000   0.284917    0.265613
-0.760800   0.272500    0.266491
-0.759600   0.275083    0.267371
-0.758400   0.281583    0.268253
-0.757200   0.280375    0.269135
-0.756000   0.278375    0.270020
-0.754800   0.281000    0.270906
-0.753600   0.283500    0.271793
-0.752400   0.284375    0.272682
-0.751200   0.287083    0.273573
-0.750000   0.293000    0.274465
-0.748800   0.288333    0.275358
-0.747600   0.283792    0.276253
-0.746400   0.289542    0.277149
-0.745200   0.294875    0.278047
-0.744000   0.294167    0.278946
-0.742800   0.291583    0.279847
-0.741600   0.282750    0.280749
-0.740400   0.294542    0.281653
-0.739200   0.294750    0.282558
-0.738000   0.290625    0.283464
-0.736800   0.293292    0.284372
-0.735600   0.293375    0.285282
-0.734400   0.289125    0.286192
-0.733200   0.298292    0.287104
-0.732000   0.299292    0.288018
-0.730800   0.300083    0.288933
-0.729600   0.302083    0.289849
-0.728400   0.298167    0.290767
-0.727200   0.306125    0.291686
-0.726000   0.304917    0.292607
-0.724800   0.305125    0.293529
-0.723600   0.303000    0.294452
-0.722400   0.302583    0.295377
-0.721200   0.306167    0.296303
-0.720000   0.307833    0.297230
-0.718800   0.306167    0.298159
-0.717600   0.304417    0.299089
-0.716400   0.312542    0.300020
-0.715200   0.315875    0.300953
-0.714000   0.311792    0.301887
-0.712800   0.319125    0.302822
-0.711600   0.311958    0.303759
-0.710400   0.315208    0.304697
-0.709200   0.317917    0.305636
-0.708000   0.315000    0.306577
-0.706800   0.315375    0.307519
-0.705600   0.314875    0.308462
-0.704400   0.324083    0.309406
-0.703200   0.322000    0.310352
-0.702000   0.321833    0.311299
-0.700800   0.322875    0.312248
-0.699600   0.329917    0.313197
-0.698400   0.332000    0.314148
-0.697200   0.329667    0.315100
-0.696000   0.334417    0.316053
-0.694800   0.324000    0.317008
-0.693600   0.331250    0.317964
-0.692400   0.327542    0.318921
-0.691200   0.331042    0.319879
-0.690000   0.338000    0.320838
-0.688800   0.334083    0.321799
-0.687600   0.330542    0.322761
-0.686400   0.337417    0.323724
-0.685200   0.330583    0.324688
-0.684000   0.340000    0.325653
-0.682800   0.341125    0.326620
-0.681600   0.342708    0.327587
-0.680400   0.340958    0.328556
-0.679200   0.343417    0.329526
-0.678000   0.338833    0.330497
-0.676800   0.337833    0.331470
-0.675600   0.346333    0.332443
-0.674400   0.345583    0.333417
-0.673200   0.344333    0.334393
-0.672000   0.344917    0.335370
-0.670800   0.352833    0.336348
-0.669600   0.346458    0.337327
-0.668400   0.344333    0.338307
-0.667200   0.348125    0.339288
-0.666000   0.351417    0.340270
-0.664800   0.352833    0.341253
-0.663600   0.354667    0.342238
-0.662400   0.353333    0.343223
-0.661200   0.352625    0.344209
-0.660000   0.353625    0.345197
-0.658800   0.350208    0.346185
-0.657600   0.362458    0.347175
-0.656400   0.357042    0.348166
-0.655200   0.360667    0.349157
-0.654000   0.358542    0.350150
-0.652800   0.364625    0.351143
-0.651600   0.369625    0.352138
-0.650400   0.364917    0.353133
-0.649200   0.366500    0.354130
-0.648000   0.366417    0.355127
-0.646800   0.365792    0.356126
-0.645600   0.371792    0.357125
-0.644400   0.365750    0.358125
-0.643200   0.371458    0.359126
-0.642000   0.371375    0.360129
-0.640800   0.373167    0.361132
-0.639600   0.373333    0.362136
-0.638400   0.372750    0.363140
-0.637200   0.373917    0.364146
-0.636000   0.375667    0.365153
-0.634800   0.372000    0.366160
-0.633600   0.375625    0.367169
-0.632400   0.374750    0.368178
-0.631200   0.378708    0.369188
-0.630000   0.382417    0.370199
-0.628800   0.385000    0.371211
-0.627600   0.378792    0.372224
-0.626400   0.383875    0.373237
-0.625200   0.384917    0.374251
-0.624000   0.386083    0.375266
-0.622800   0.384750    0.376282
-0.621600   0.384500    0.377299
-0.620400   0.386958    0.378316
-0.619200   0.389958    0.379334
-0.618000   0.393250    0.380353
-0.616800   0.389417    0.381373
-0.615600   0.394917    0.382394
-0.614400   0.399125    0.383415
-0.613200   0.399125    0.384437
-0.612000   0.400667    0.385459
-0.610800   0.395167    0.386483
-0.609600   0.403042    0.387507
-0.608400   0.397625    0.388531
-0.607200   0.396583    0.389557
-0.606000   0.406625    0.390583
-0.604800   0.401208    0.391610
-0.603600   0.400292    0.392637
-0.602400   0.401792    0.393665
-0.601200   0.409208    0.394694
-0.600000   0.400542    0.395723
-0.598800   0.406417    0.396753
-0.597600   0.410417    0.397784
-0.596400   0.405500    0.398815
-0.595200   0.407583    0.399847
-0.594000   0.407833    0.400879
-0.592800   0.415125    0.401912
-0.591600   0.410833    0.402945
-0.590400   0.424125    0.403979
-0.589200   0.416083    0.405014
-0.588000   0.416583    0.406049
-0.586800   0.418375    0.407085
-0.585600   0.417167    0.408121
-0.584400   0.422833    0.409157
-0.583200   0.421167    0.410195
-0.582000   0.416542    0.411232
-0.580800   0.422792    0.412270
-0.579600   0.426375    0.413309
-0.578400   0.421667    0.414348
-0.577200   0.425208    0.415387
-0.576000   0.425917    0.416427
-0.574800   0.431917    0.417468
-0.573600   0.427792    0.418509
-0.572400   0.423583    0.419550
-0.571200   0.431042    0.420591
-0.570000   0.426042    0.421633
-0.568800   0.431625    0.422676
-0.567600   0.436958    0.423718
-0.566400   0.438500    0.424762
-0.565200   0.432250    0.425805
-0.564000   0.434208    0.426849
-0.562800   0.439542    0.427893
-0.561600   0.441417    0.428938
-0.560400   0.441375    0.429982
-0.559200   0.430667    0.431027
-0.558000   0.445625    0.432073
-0.556800   0.440708    0.433118
-0.555600   0.445250    0.434164
-0.554400   0.445000    0.435211
-0.553200   0.447500    0.436257
-0.552000   0.440083    0.437304
-0.550800   0.447417    0.438351
-0.549600   0.449042    0.439398
-0.548400   0.442417    0.440445
-0.547200   0.452958    0.441493
-0.546000   0.453375    0.442540
-0.544800   0.448792    0.443588
-0.543600   0.445208    0.444636
-0.542400   0.449667    0.445684
-0.541200   0.457792    0.446733
-0.540000   0.443167    0.447781
-0.538800   0.456208    0.448830
-0.537600   0.455750    0.449879
-0.536400   0.460833    0.450928
-0.535200   0.459208    0.451977
-0.534000   0.462500    0.453026
-0.532800   0.462917    0.454075
-0.531600   0.455375    0.455124
-0.530400   0.467875    0.456173
-0.529200   0.466583    0.457222
-0.528000   0.472167    0.458272
-0.526800   0.465667    0.459321
-0.525600   0.469875    0.460370
-0.524400   0.471875    0.461419
-0.523200   0.468667    0.462469
-0.522000   0.475500    0.463518
-0.520800   0.476083    0.464567
-0.519600   0.474625    0.465616
-0.518400   0.472917    0.466666
-0.517200   0.471000    0.467715
-0.516000   0.478667    0.468764
-0.514800   0.478917    0.469812
-0.513600   0.484292    0.470861
-0.512400   0.481167    0.471910
-0.511200   0.478833    0.472958
-0.510000   0.486917    0.474007
-0.508800   0.481375    0.475055
-0.507600   0.479792    0.476103
-0.506400   0.479208    0.477151
-0.505200   0.483792    0.478199
-0.504000   0.480792    0.479246
-0.502800   0.484417    0.480294
-0.501600   0.487042    0.481341
-0.500400   0.484750    0.482388
-0.499200   0.495875    0.483434
-0.498000   0.492333    0.484481
-0.496800   0.497500    0.485527
-0.495600   0.492917    0.486573
-0.494400   0.501292    0.487618
-0.493200   0.496042    0.488664
-0.492000   0.494042    0.489709
-0.490800   0.491542    0.490753
-0.489600   0.497500    0.491797
-0.488400   0.494625    0.492841
-0.487200   0.501083    0.493885
-0.486000   0.494917    0.494928
-0.484800   0.503042    0.495971
-0.483600   0.499667    0.497014
-0.482400   0.502000    0.498056
-0.481200   0.511833    0.499098
-0.480000   0.502083    0.500139
-0.478800   0.503208    0.501180
-0.477600   0.507958    0.502220
-0.476400   0.506333    0.503260
-0.475200   0.507417    0.504299
-0.474000   0.502208    0.505338
-0.472800   0.508375    0.506377
-0.471600   0.516708    0.507415
-0.470400   0.515500    0.508452
-0.469200   0.511375    0.509489
-0.468000   0.519333    0.510526
-0.466800   0.522708    0.511561
-0.465600   0.516542    0.512597
-0.464400   0.513583    0.513631
-0.463200   0.529750    0.514665
-0.462000   0.527458    0.515699
-0.460800   0.525750    0.516732
-0.459600   0.520042    0.517764
-0.458400   0.522583    0.518796
-0.457200   0.520875    0.519827
-0.456000   0.530208    0.520857
-0.454800   0.527208    0.521887
-0.453600   0.530292    0.522915
-0.452400   0.533583    0.523944
-0.451200   0.522083    0.524971
-0.450000   0.529667    0.525998
-0.448800   0.535292    0.527024
-0.447600   0.530208    0.528049
-0.446400   0.532333    0.529074
-0.445200   0.535375    0.530098
-0.444000   0.526458    0.531121
-0.442800   0.535667    0.532143
-0.441600   0.540792    0.533164
-0.440400   0.537542    0.534185
-0.439200   0.538125    0.535205
-0.438000   0.533042    0.536224
-0.436800   0.536417    0.537242
-0.435600   0.540667    0.538259
-0.434400   0.544125    0.539275
-0.433200   0.544125    0.540291
-0.432000   0.541083    0.541305
-0.430800   0.543292    0.542319
-0.429600   0.538333    0.543332
-0.428400   0.547625    0.544343
-0.427200   0.547042    0.545354
-0.426000   0.548542    0.546364
-0.424800   0.555750    0.547373
-0.423600   0.554833    0.548381
-0.422400   0.551625    0.549387
-0.421200   0.560917    0.550393
-0.420000   0.551000    0.551398
-0.418800   0.558833    0.552402
-0.417600   0.547833    0.553404
-0.416400   0.551500    0.554406
-0.415200   0.550458    0.555407
-0.414000   0.561833    0.556406
-0.412800   0.556292    0.557405
-0.411600   0.554000    0.558402
-0.410400   0.550625    0.559398
-0.409200   0.562167    0.560393
-0.408000   0.555917    0.561387
-0.406800   0.561458    0.562379
-0.405600   0.564792    0.563371
-0.404400   0.566708    0.564361
-0.403200   0.563292    0.565350
-0.402000   0.562167    0.566338
-0.400800   0.565917    0.567325
-0.399600   0.569250    0.568310
-0.398400   0.569250    0.569294
-0.397200   0.568708    0.570277
-0.396000   0.575917    0.571259
-0.394800   0.575833    0.572239
-0.393600   0.576042    0.573218
-0.392400   0.573458    0.574196
-0.391200   0.571208    0.575173
-0.390000   0.575417    0.576148
-0.388800   0.580167    0.577121
-0.387600   0.584000    0.578094
-0.386400   0.577792    0.579065
-0.385200   0.577917    0.580034
-0.384000   0.577417    0.581003
-0.382800   0.580833    0.581969
-0.381600   0.579917    0.582935
-0.380400   0.578458    0.583899
-0.379200   0.577333    0.584861
-0.378000   0.582167    0.585822
-0.376800   0.586500    0.586782
-0.375600   0.589250    0.587740
-0.374400   0.586792    0.588696
-0.373200   0.588083    0.589651
-0.372000   0.582208    0.590605
-0.370800   0.589917    0.591557
-0.369600   0.597000    0.592507
-0.368400   0.592208    0.593456
-0.367200   0.598625    0.594403
-0.366000   0.593583    0.595349
-0.364800   0.595458    0.596293
-0.363600   0.600875    0.597236
-0.362400   0.594458    0.598177
-0.361200   0.594958    0.599116
-0.360000   0.593750    0.600053
-0.358800   0.597417    0.600989
-0.357600   0.611500    0.601924
-0.356400   0.594458    0.602856
-0.355200   0.597875    0.603787
-0.354000   0.601833    0.604716
-0.352800   0.596833    0.605644
-0.351600   0.605208    0.606569
-0.350400   0.604875    0.607493
-0.349200   0.610625    0.608416
-0.348000   0.608333    0.609336
-0.346800   0.610042    0.610255
-0.345600   0.606958    0.611172
-0.344400   0.607875    0.612087
-0.343200   0.604167    0.613000
-0.342000   0.602417    0.613911
-0.340800   0.610292    0.614821
-0.339600   0.614750    0.615728
-0.338400   0.611833    0.616634
-0.337200   0.615292    0.617538
-0.336000   0.613417    0.618440
-0.334800   0.622917    0.619340
-0.333600   0.609542    0.620239
-0.332400   0.619875    0.621135
-0.331200   0.611917    0.622029
-0.330000   0.625417    0.622922
-0.328800   0.614000    0.623812
-0.327600   0.627333    0.624701
-0.326400   0.633250    0.625587
-0.325200   0.622042    0.626472
-0.324000   0.625458    0.627354
-0.322800   0.615458    0.628234
-0.321600   0.618833    0.629113
-0.320400   0.627958    0.629989
-0.319200   0.625458    0.630864
-0.318000   0.628167    0.631736
-0.316800   0.631000    0.632606
-0.315600   0.633625    0.633474
-0.314400   0.622708    0.634340
-0.313200   0.627000    0.635204
-0.312000   0.627542    0.636065
-0.310800   0.627000    0.636925
-0.309600   0.641792    0.637782
-0.308400   0.633000    0.638637
-0.307200   0.644833    0.639490
-0.306000   0.629250    0.640341
-0.304800   0.630333    0.641190
-0.303600   0.626292    0.642036
-0.302400   0.629667    0.642880
-0.301200   0.646000    0.643722
-0.300000   0.638750    0.644562
-0.298800   0.645333    0.645399
-0.297600   0.639000    0.646234
-0.296400   0.636417    0.647067
-0.295200   0.647083    0.647898
-0.294000   0.642667    0.648726
-0.292800   0.648875    0.649552
-0.291600   0.644625    0.650376
-0.290400   0.646667    0.651197
-0.289200   0.649833    0.652016
-0.288000   0.650125    0.652832
-0.286800   0.642875    0.653646
-0.285600   0.647625    0.654458
-0.284400   0.655042    0.655267
-0.283200   0.650625    0.656074
-0.282000   0.651083    0.656879
-0.280800   0.649708    0.657681
-0.279600   0.647542    0.658481
-0.278400   0.645667    0.659278
-0.277200   0.656958    0.660072
-0.276000   0.657083    0.660865
-0.274800   0.647542    0.661654
-0.273600   0.661333    0.662442
-0.272400   0.657083    0.663226
-0.271200   0.658250    0.664008
-0.270000   0.657958    0.664788
-0.268800   0.662042    0.665565
-0.267600   0.660500    0.666340
-0.266400   0.664875    0.667112
-0.265200   0.656167    0.667881
-0.264000   0.656917    0.668648
-0.262800   0.654917    0.669412
-0.261600   0.668583    0.670174
-0.260400   0.664375    0.670933
-0.259200   0.660042    0.671689
-0.258000   0.661667    0.672443
-0.256800   0.662125    0.673194
-0.255600   0.663375    0.673942
-0.254400   0.660375    0.674688
-0.253200   0.662542    0.675431
-0.252000   0.665500    0.676171
-0.250800   0.661292    0.676908
-0.249600   0.671292    0.677643
-0.248400   0.663167    0.678375
-0.247200   0.661875    0.679105
-0.246000   0.670042    0.679831
-0.244800   0.675542    0.680555
-0.243600   0.673667    0.681276
-0.242400   0.678625    0.681995
-0.241200   0.675458    0.682710
-0.240000   0.667708    0.683423
-0.238800   0.677208    0.684133
-0.237600   0.674125    0.684840
-0.236400   0.679417    0.685544
-0.235200   0.677542    0.686245
-0.234000   0.676792    0.686944
-0.232800   0.673792    0.687639
-0.231600   0.671417    0.688332
-0.230400   0.685667    0.689022
-0.229200   0.672000    0.689709
-0.228000   0.677917    0.690393
-0.226800   0.695042    0.691074
-0.225600   0.679083    0.691752
-0.224400   0.671083    0.692428
-0.223200   0.680792    0.693100
-0.222000   0.691208    0.693769
-0.220800   0.683958    0.694436
-0.219600   0.682292    0.695099
-0.218400   0.684417    0.695760
-0.217200   0.681500    0.696417
-0.216000   0.694833    0.697071
-0.214800   0.688750    0.697723
-0.213600   0.687708    0.698371
-0.212400   0.685875    0.699017
-0.211200   0.683958    0.699659
-0.210000   0.682208    0.700298
-0.208800   0.698250    0.700934
-0.207600   0.689083    0.701568
-0.206400   0.701625    0.702198
-0.205200   0.692167    0.702825
-0.204000   0.685917    0.703448
-0.202800   0.684375    0.704069
-0.201600   0.697167    0.704687
-0.200400   0.688833    0.705301
-0.199200   0.691625    0.705913
-0.198000   0.694667    0.706521
-0.196800   0.697292    0.707126
-0.195600   0.688042    0.707728
-0.194400   0.694500    0.708327
-0.193200   0.693958    0.708922
-0.192000   0.687833    0.709514
-0.190800   0.698792    0.710104
-0.189600   0.700458    0.710690
-0.188400   0.704000    0.711272
-0.187200   0.691708    0.711852
-0.186000   0.694750    0.712428
-0.184800   0.696500    0.713001
-0.183600   0.705542    0.713571
-0.182400   0.683792    0.714137
-0.181200   0.708625    0.714701
-0.180000   0.694292    0.715260
-0.178800   0.696583    0.715817
-0.177600   0.702083    0.716371
-0.176400   0.700542    0.716921
-0.175200   0.709208    0.717467
-0.174000   0.708125    0.718011
-0.172800   0.712958    0.718551
-0.171600   0.702625    0.719088
-0.170400   0.706958    0.719621
-0.169200   0.703708    0.720151
-0.168000   0.707500    0.720678
-0.166800   0.709917    0.721201
-0.165600   0.703458    0.721721
-0.164400   0.717583    0.722238
-0.163200   0.711875    0.722751
-0.162000   0.713042    0.723261
-0.160800   0.707042    0.723767
-0.159600   0.710917    0.724270
-0.158400   0.714750    0.724770
-0.157200   0.713875    0.725266
-0.156000   0.712958    0.725759
-0.154800   0.718042    0.726248
-0.153600   0.709208    0.726734
-0.152400   0.718208    0.727216
-0.151200   0.709833    0.727695
-0.150000   0.713750    0.728170
-0.148800   0.719167    0.728642
-0.147600   0.708792    0.729111
-0.146400   0.717708    0.729575
-0.145200   0.716083    0.730037
-0.144000   0.719292    0.730495
-0.142800   0.718542    0.730949
-0.141600   0.711708    0.731400
-0.140400   0.714625    0.731847
-0.139200   0.715042    0.732291
-0.138000   0.726833    0.732732
-0.136800   0.721583    0.733168
-0.135600   0.718625    0.733601
-0.134400   0.725083    0.734031
-0.133200   0.715625    0.734457
-0.132000   0.719125    0.734879
-0.130800   0.716667    0.735298
-0.129600   0.717458    0.735714
-0.128400   0.727458    0.736125
-0.127200   0.726875    0.736533
-0.126000   0.724125    0.736938
-0.124800   0.718708    0.737339
-0.123600   0.721208    0.737736
-0.122400   0.728208    0.738130
-0.121200   0.723750    0.738520
-0.120000   0.719083    0.738906
-0.118800   0.714333    0.739289
-0.117600   0.721708    0.739668
-0.116400   0.726333    0.740043
-0.115200   0.720958    0.740415
-0.114000   0.725542    0.740783
-0.112800   0.728250    0.741147
-0.111600   0.723792    0.741508
-0.110400   0.723125    0.741865
-0.109200   0.729333    0.742218
-0.108000   0.727083    0.742568
-0.106800   0.726208    0.742914
-0.105600   0.728333    0.743256
-0.104400   0.722958    0.743594
-0.103200   0.720292    0.743929
-0.102000   0.732542    0.744260
-0.100800   0.728042    0.744588
-0.099600   0.731250    0.744911
-0.098400   0.733875    0.745231
-0.097200   0.730375    0.745547
-0.096000   0.728292    0.745860
-0.094800   0.730125    0.746168
-0.093600   0.719917    0.746473
-0.092400   0.739792    0.746774
-0.091200   0.729833    0.747072
-0.090000   0.724417    0.747365
-0.088800   0.729542    0.747655
-0.087600   0.735292    0.747941
-0.086400   0.714917    0.748223
-0.085200   0.728250    0.748502
-0.084000   0.732917    0.748776
-0.082800   0.731792    0.749047
-0.081600   0.741208    0.749314
-0.080400   0.735917    0.749577
-0.079200   0.737375    0.749837
-0.078000   0.744000    0.750092
-0.076800   0.735958    0.750344
-0.075600   0.726250    0.750592
-0.074400   0.730750    0.750836
-0.073200   0.740500    0.751077
-0.072000   0.737333    0.751313
-0.070800   0.739375    0.751546
-0.069600   0.733333    0.751775
-0.068400   0.731208    0.752000
-0.067200   0.735792    0.752221
-0.066000   0.738208    0.752438
-0.064800   0.731833    0.752652
-0.063600   0.734250    0.752861
-0.062400   0.745125    0.753067
-0.061200   0.732583    0.753269
-0.060000   0.740667    0.753467
-0.058800   0.732375    0.753661
-0.057600   0.732458    0.753851
-0.056400   0.727250    0.754037
-0.055200   0.742125    0.754220
-0.054000   0.745000    0.754398
-0.052800   0.737292    0.754573
-0.051600   0.747750    0.754744
-0.050400   0.733292    0.754911
-0.049200   0.737833    0.755074
-0.048000   0.737792    0.755233
-0.046800   0.741125    0.755388
-0.045600   0.733625    0.755540
-0.044400   0.724792    0.755687
-0.043200   0.739958    0.755831
-0.042000   0.743208    0.755970
-0.040800   0.730333    0.756106
-0.039600   0.754833    0.756238
-0.038400   0.733833    0.756366
-0.037200   0.745833    0.756490
-0.036000   0.732250    0.756610
-0.034800   0.739417    0.756726
-0.033600   0.741375    0.756838
-0.032400   0.737542    0.756947
-0.031200   0.748042    0.757051
-0.030000   0.741792    0.757151
-0.028800   0.738042    0.757248
-0.027600   0.738250    0.757341
-0.026400   0.735208    0.757429
-0.025200   0.741333    0.757514
-0.024000   0.742917    0.757595
-0.022800   0.737000    0.757672
-0.021600   0.735917    0.757745
-0.020400   0.743125    0.757814
-0.019200   0.746375    0.757879
-0.018000   0.731125    0.757940
-0.016800   0.738583    0.757997
-0.015600   0.748000    0.758050
-0.014400   0.739167    0.758100
-0.013200   0.745708    0.758145
-0.012000   0.735417    0.758186
-0.010800   0.731708    0.758224
-0.009600   0.743583    0.758257
-0.008400   0.737500    0.758287
-0.007200   0.752250    0.758313
-0.006000   0.743208    0.758334
-0.004800   0.740125    0.758352
-0.003600   0.741333    0.758366
-0.002400   0.732583    0.758376
-0.001200   0.744542    0.758382
-0.000000   0.738167    0.758384
0.001200   0.751417    0.758382
0.002400   0.742625    0.758376
0.003600   0.733042    0.758366
0.004800   0.753417    0.758352
0.006000   0.736792    0.758334
0.007200   0.741042    0.758313
0.008400   0.743792    0.758287
0.009600   0.755167    0.758257
0.010800   0.723417    0.758224
0.012000   0.742042    0.758186
0.013200   0.740958    0.758145
0.014400   0.746792    0.758100
0.015600   0.739000    0.758050
0.016800   0.749042    0.757997
0.018000   0.740542    0.757940
0.019200   0.741042    0.757879
0.020400   0.740958    0.757814
0.021600   0.741458    0.757745
0.022800   0.741042    0.757672
0.024000   0.741375    0.757595
0.025200   0.738667    0.757514
0.026400   0.748000    0.757429
0.027600   0.737875    0.757341
0.028800   0.740750    0.757248
0.030000   0.743958    0.757151
0.031200   0.739167    0.757051
0.032400   0.748417    0.756947
0.033600   0.730667    0.756838
0.034800   0.740042    0.756726
0.036000   0.736583    0.756610
0.037200   0.738375    0.756490
0.038400   0.740042    0.756366
0.039600   0.741083    0.756238
0.040800   0.748167    0.756106
0.042000   0.746833    0.755970
0.043200   0.743125    0.755831
0.044400   0.743875    0.755687
0.045600   0.740375    0.755540
0.046800   0.739500    0.755388
0.048000   0.740500    0.755233
0.049200   0.734500    0.755074
0.050400   0.734500    0.754911
0.051600   0.735042    0.754744
0.052800   0.739125    0.754573
0.054000   0.743125    0.754398
0.055200   0.749042    0.754220
0.056400   0.726250    0.754037
0.057600   0.720250    0.753851
0.058800   0.732333    0.753661
0.060000   0.747083    0.753467
0.061200   0.734875    0.753269
0.062400   0.741208    0.753067
0.063600   0.734042    0.752861
0.064800   0.736833    0.752652
0.066000   0.732792    0.752438
0.067200   0.739083    0.752221
0.068400   0.732375    0.752000
0.069600   0.725750    0.751775
0.070800   0.737000    0.751546
0.072000   0.742042    0.751313
0.073200   0.734042    0.751077
0.074400   0.732042    0.750836
0.075600   0.733833    0.750592
0.076800   0.734333    0.750344
0.078000   0.716083    0.750092
0.079200   0.733333    0.749837
0.080400   0.727208    0.749577
0.081600   0.731000    0.749314
0.082800   0.738792    0.749047
0.084000   0.728208    0.748776
0.085200   0.725000    0.748502
0.086400   0.733333    0.748223
0.087600   0.735250    0.747941
0.088800   0.734667    0.747655
0.090000   0.734333    0.747365
0.091200   0.736667    0.747072
0.092400   0.722125    0.746774
0.093600   0.731375    0.746473
0.094800   0.727000    0.746168
0.096000   0.730708    0.745860
0.097200   0.721083    0.745547
0.098400   0.726708    0.745231
0.099600   0.734167    0.744911
0.100800   0.732833    0.744588
0.102000   0.734583    0.744260
0.103200   0.730708    0.743929
0.104400   0.728042    0.743594
0.105600   0.720625    0.743256
0.106800   0.733833    0.742914
0.108000   0.725542    0.742568
0.109200   0.736125    0.742218
0.110400   0.733042    0.741865
0.111600   0.715875    0.741508
0.112800   0.722167    0.741147
0.114000   0.713083    0.740783
0.115200   0.728375    0.740415
0.116400   0.723625    0.740043
0.117600   0.726708    0.739668
0.118800   0.717875    0.739289
0.120000   0.722000    0.738906
0.121200   0.724792    0.738520
0.122400   0.724292    0.738130
0.123600   0.726000    0.737736
0.124800   0.723708    0.737339
0.126000   0.733458    0.736938
0.127200   0.714125    0.736533
0.128400   0.719667    0.736125
0.129600   0.730583    0.735714
0.130800   0.717292    0.735298
0.132000   0.725042    0.734879
0.133200   0.716917    0.734457
0.134400   0.723625    0.734031
0.135600   0.720292    0.733601
0.136800   0.720083    0.733168
0.138000   0.718000    0.732732
0.139200   0.715750    0.732291
0.140400   0.727250    0.731847
0.141600   0.718833    0.731400
0.142800   0.715583    0.730949
0.144000   0.717542    0.730495
0.145200   0.712125    0.730037
0.146400   0.704292    0.729575
0.147600   0.725792    0.729111
0.148800   0.713417    0.728642
0.150000   0.703708    0.728170
0.151200   0.708917    0.727695
0.152400   0.710375    0.727216
0.153600   0.713667    0.726734
0.154800   0.722208    0.726248
0.156000   0.712625    0.725759
0.157200   0.714958    0.725266
0.158400   0.712042    0.724770
0.159600   0.708250    0.724270
0.160800   0.717583    0.723767
0.162000   0.706750    0.723261
0.163200   0.702583    0.722751
0.164400   0.699958    0.722238
0.165600   0.707417    0.721721
0.166800   0.703792    0.721201
0.168000   0.708833    0.720678
0.169200   0.712750    0.720151
0.170400   0.712375    0.719621
0.171600   0.700667    0.719088
0.172800   0.705583    0.718551
0.174000   0.702292    0.718011
0.175200   0.697625    0.717467
0.176400   0.700875    0.716921
0.177600   0.705292    0.716371
0.178800   0.701125    0.715817
0.180000   0.706542    0.715260
0.181200   0.706042    0.714701
0.182400   0.696792    0.714137
0.183600   0.694667    0.713571
0.184800   0.692958    0.713001
0.186000   0.703375    0.712428
0.187200   0.710125    0.711852
0.188400   0.697292    0.711272
0.189600   0.693583    0.710690
0.190800   0.699708    0.710104
0.192000   0.704833    0.709514
0.193200   0.709125    0.708922
0.194400   0.692792    0.708327
0.195600   0.686458    0.707728
0.196800   0.702042    0.707126
0.198000   0.689667    0.706521
0.199200   0.698417    0.705913
0.200400   0.696125    0.705301
0.201600   0.686750    0.704687
0.202800   0.681958    0.704069
0.204000   0.692958    0.703448
0.205200   0.689167    0.702825
0.206400   0.689833    0.702198
0.207600   0.684458    0.701568
0.208800   0.694958    0.700934
0.210000   0.677208    0.700298
0.211200   0.685708    0.699659
0.212400   0.686042    0.699017
0.213600   0.689000    0.698371
0.214800   0.677875    0.697723
0.216000   0.677167    0.697071
0.217200   0.683292    0.696417
0.218400   0.687875    0.695760
0.219600   0.691042    0.695099
0.220800   0.685042    0.694436
0.222000   0.685667    0.693769
0.223200   0.675542    0.693100
0.224400   0.678875    0.692428
0.225600   0.677542    0.691752
0.226800   0.682625    0.691074
0.228000   0.682917    0.690393
0.229200   0.680292    0.689709
0.230400   0.669500    0.689022
0.231600   0.675000    0.688332
0.232800   0.681208    0.687639
0.234000   0.674583    0.686944
0.235200   0.679708    0.686245
0.236400   0.674292    0.685544
0.237600   0.681500    0.684840
0.238800   0.678042    0.684133
0.240000   0.674167    0.683423
0.241200   0.667917    0.682710
0.242400   0.680667    0.681995
0.243600   0.672583    0.681276
0.244800   0.671708    0.680555
0.246000   0.664500    0.679831
0.247200   0.663417    0.679105
0.248400   0.671708    0.678375
0.249600   0.672458    0.677643
0.250800   0.664708    0.676908
0.252000   0.678542    0.676171
0.253200   0.664208    0.675431
0.254400   0.672833    0.674688
0.255600   0.669625    0.673942
0.256800   0.658833    0.673194
0.258000   0.663875    0.672443
0.259200   0.659458    0.671689
0.260400   0.662000    0.670933
0.261600   0.664542    0.670174
0.262800   0.655833    0.669412
0.264000   0.661708    0.668648
0.265200   0.658333    0.667881
0.266400   0.652167    0.667112
0.267600   0.662583    0.666340
0.268800   0.655958    0.665565
0.270000   0.657458    0.664788
0.271200   0.652000    0.664008
0.272400   0.661333    0.663226
0.273600   0.657000    0.662442
0.274800   0.656792    0.661654
0.276000   0.652208    0.660865
0.277200   0.648292    0.660072
0.278400   0.649667    0.659278
0.279600   0.651000    0.658481
0.280800   0.650167    0.657681
0.282000   0.648833    0.656879
0.283200   0.642792    0.656074
0.284400   0.634667    0.655267
0.285600   0.639833    0.654458
0.286800   0.644333    0.653646
0.288000   0.649125    0.652832
0.289200   0.638208    0.652016
0.290400   0.645417    0.651197
0.291600   0.637000    0.650376
0.292800   0.647583    0.649552
0.294000   0.636125    0.648726
0.295200   0.636042    0.647898
0.296400   0.637917    0.647067
0.297600   0.650875    0.646234
0.298800   0.635750    0.645399
0.300000   0.631042    0.644562
0.301200   0.637333    0.643722
0.302400   0.630958    0.642880
0.303600   0.638542    0.642036
0.304800   0.635583    0.641190
0.306000   0.636250    0.640341
0.307200   0.639458    0.639490
0.308400   0.640417    0.638637
0.309600   0.639292    0.637782
0.310800   0.638667    0.636925
0.312000   0.636458    0.636065
0.313200   0.628458    0.635204
0.314400   0.624750    0.634340
0.315600   0.624083    0.633474
0.316800   0.624667    0.632606
0.318000   0.639292    0.631736
0.319200   0.624792    0.630864
0.320400   0.624083    0.629989
0.321600   0.626750    0.629113
0.322800   0.629458    0.628234
0.324000   0.625208    0.627354
0.325200   0.614625    0.626472
0.326400   0.618417    0.625587
0.327600   0.623917    0.624701
0.328800   0.619833    0.623812
0.330000   0.613833    0.622922
0.331200   0.624583    0.622029
0.332400   0.615625    0.621135
0.333600   0.614542    0.620239
0.334800   0.612708    0.619340
0.336000   0.615125    0.618440
0.337200   0.607708    0.617538
0.338400   0.607583    0.616634
0.339600   0.611208    0.615728
0.340800   0.619042    0.614821
0.342000   0.607083    0.613911
0.343200   0.604958    0.613000
0.344400   0.615750    0.612087
0.345600   0.615750    0.611172
0.346800   0.610708    0.610255
0.348000   0.598958    0.609336
0.349200   0.603792    0.608416
0.350400   0.608958    0.607493
0.351600   0.608250    0.606569
0.352800   0.603083    0.605644
0.354000   0.609083    0.604716
0.355200   0.603292    0.603787
0.356400   0.606875    0.602856
0.357600   0.604250    0.601924
0.358800   0.600750    0.600989
0.360000   0.606250    0.600053
0.361200   0.600042    0.599116
0.362400   0.604958    0.598177
0.363600   0.601792    0.597236
0.364800   0.593667    0.596293
0.366000   0.586833    0.595349
0.367200   0.593458    0.594403
0.368400   0.592750    0.593456
0.369600   0.582667    0.592507
0.370800   0.595000    0.591557
0.372000   0.583667    0.590605
0.373200   0.590542    0.589651
0.374400   0.590500    0.588696
0.375600   0.580750    0.587740
0.376800   0.583833    0.586782
0.378000   0.583458    0.585822
0.379200   0.587458    0.584861
0.380400   0.576542    0.583899
0.381600   0.581583    0.582935
0.382800   0.573667    0.581969
0.384000   0.584917    0.581003
0.385200   0.576500    0.580034
0.386400   0.574875    0.579065
0.387600   0.573750    0.578094
0.388800   0.575500    0.577121
0.390000   0.577333    0.576148
0.391200   0.571542    0.575173
0.392400   0.568875    0.574196
0.393600   0.572958    0.573218
0.394800   0.573750    0.572239
0.396000   0.569542    0.571259
0.397200   0.575458    0.570277
0.398400   0.570583    0.569294
0.399600   0.580792    0.568310
0.400800   0.558375    0.567325
0.402000   0.566625    0.566338
0.403200   0.564917    0.565350
0.404400   0.566417    0.564361
0.405600   0.554250    0.563371
0.406800   0.560000    0.562379
0.408000   0.563458    0.561387
0.409200   0.560042    0.560393
0.410400   0.567708    0.559398
0.411600   0.555583    0.558402
0.412800   0.555417    0.557405
0.414000   0.555667    0.556406
0.415200   0.556583    0.555407
0.416400   0.549458    0.554406
0.417600   0.557833    0.553404
0.418800   0.557542    0.552402
0.420000   0.549583    0.551398
0.421200   0.544875    0.550393
0.422400   0.547750    0.549387
0.423600   0.553000    0.548381
0.424800   0.549083    0.547373
0.426000   0.553083    0.546364
0.427200   0.548875    0.545354
0.428400   0.549417    0.544343
0.429600   0.544875    0.543332
0.430800   0.554583    0.542319
0.432000   0.548167    0.541305
0.433200   0.537083    0.540291
0.434400   0.548333    0.539275
0.435600   0.548417    0.538259
0.436800   0.539917    0.537242
0.438000   0.553500    0.536224
0.439200   0.531375    0.535205
0.440400   0.540083    0.534185
0.441600   0.530417    0.533164
0.442800   0.535083    0.532143
0.444000   0.533125    0.531121
0.445200   0.527542    0.530098
0.446400   0.528458    0.529074
0.447600   0.530083    0.528049
0.448800   0.534000    0.527024
0.450000   0.531667    0.525998
0.451200   0.524375    0.524971
0.452400   0.526458    0.523944
0.453600   0.536958    0.522915
0.454800   0.532667    0.521887
0.456000   0.521292    0.520857
0.457200   0.529208    0.519827
0.458400   0.513292    0.518796
0.459600   0.523458    0.517764
0.460800   0.516333    0.516732
0.462000   0.526250    0.515699
0.463200   0.513292    0.514665
0.464400   0.525125    0.513631
0.465600   0.519250    0.512597
0.466800   0.515583    0.511561
0.468000   0.527958    0.510526
0.469200   0.519250    0.509489
0.470400   0.513375    0.508452
0.471600   0.513625    0.507415
0.472800   0.519417    0.506377
0.474000   0.516208    0.505338
0.475200   0.512000    0.504299
0.476400   0.502500    0.503260
0.477600   0.511250    0.502220
0.478800   0.506000    0.501180
0.480000   0.512500    0.500139
0.481200   0.505000    0.499098
0.482400   0.506542    0.498056
0.483600   0.499583    0.497014
0.484800   0.503792    0.495971
0.486000   0.499708    0.494928
0.487200   0.500208    0.493885
0.488400   0.504042    0.492841
0.489600   0.493208    0.491797
0.490800   0.498375    0.490753
0.492000   0.500417    0.489709
0.493200   0.484917    0.488664
0.494400   0.500208    0.487618
0.495600   0.492625    0.486573
0.496800   0.486125    0.485527
0.498000   0.490042    0.484481
0.499200   0.486625    0.483434
0.500400   0.489333    0.482388
0.501600   0.491417    0.481341
0.502800   0.486458    0.480294
0.504000   0.491542    0.479246
0.505200   0.487917    0.478199
0.506400   0.483667    0.477151
0.507600   0.477375    0.476103
0.508800   0.482000    0.475055
0.510000   0.476417    0.474007
0.511200   0.484583    0.472958
0.512400   0.482917    0.471910
0.513600   0.474542    0.470861
0.514800   0.482667    0.469812
0.516000   0.476708    0.468764
0.517200   0.468583    0.467715
0.518400   0.471708    0.466666
0.519600   0.475833    0.465616
0.520800   0.477125    0.464567
0.522000   0.477292    0.463518
0.523200   0.473417    0.462469
0.524400   0.468208    0.461419
0.525600   0.465375    0.460370
0.526800   0.464875    0.459321
0.528000   0.462292    0.458272
0.529200   0.456500    0.457222
0.530400   0.466292    0.456173
0.531600   0.461542    0.455124
0.532800   0.460625    0.454075
0.534000   0.465833    0.453026
0.535200   0.467583    0.451977
0.536400   0.459750    0.450928
0.537600   0.452542    0.449879
0.538800   0.452000    0.448830
0.540000   0.457583    0.447781
0.541200   0.448000    0.446733
0.542400   0.453667    0.445684
0.543600   0.456625    0.444636
0.544800   0.449208    0.443588
0.546000   0.448417    0.442540
0.547200   0.457458    0.441493
0.548400   0.448208    0.440445
0.549600   0.447000    0.439398
0.550800   0.445917    0.438351
0.552000   0.446500    0.437304
0.553200   0.445875    0.436257
0.554400   0.439792    0.435211
0.555600   0.447500    0.434164
0.556800   0.441375    0.433118
0.558000   0.440833    0.432073
0.559200   0.440042    0.431027
0.560400   0.440208    0.429982
0.561600   0.435250    0.428938
0.562800   0.443000    0.427893
0.564000   0.425792    0.426849
0.565200   0.438250    0.425805
0.566400   0.436250    0.424762
0.567600   0.433250    0.423718
0.568800   0.430042    0.422676
0.570000   0.431792    0.421633
0.571200   0.434500    0.420591
0.572400   0.429375    0.419550
0.573600   0.427958    0.418509
0.574800   0.425542    0.417468
0.576000   0.423458    0.416427
0.577200   0.424958    0.415387
0.578400   0.429042    0.414348
0.579600   0.420750    0.413309
0.580800   0.418167    0.412270
0.582000   0.422042    0.411232
0.583200   0.419958    0.410195
0.584400   0.417667    0.409157
0.585600   0.411792    0.408121
0.586800   0.418458    0.407085
0.588000   0.405750    0.406049
0.589200   0.407250    0.405014
0.590400   0.410583    0.403979
0.591600   0.413417    0.402945
0.592800   0.409333    0.401912
0.594000   0.408458    0.400879
0.595200   0.403917    0.399847
0.596400   0.415042    0.398815
0.597600   0.404708    0.397784
0.598800   0.408042    0.396753
0.600000   0.408708    0.395723
0.601200   0.407167    0.394694
0.602400   0.403833    0.393665
0.603600   0.405167    0.392637
0.604800   0.403958    0.391610
0.606000   0.405583    0.390583
0.607200   0.402625    0.389557
0.608400   0.394875    0.388531
0.609600   0.394458    0.387507
0.610800   0.389208    0.386483
0.612000   0.399208    0.385459
0.613200   0.395792    0.384437
0.614400   0.388833    0.383415
0.615600   0.388208    0.382394
0.616800   0.387208    0.381373
0.618000   0.388208    0.380353
0.619200   0.394250    0.379334
0.620400   0.385667    0.378316
0.621600   0.383167    0.377299
0.622800   0.382000    0.376282
0.624000   0.392792    0.375266
0.625200   0.382583    0.374251
0.626400   0.382458    0.373237
0.627600   0.385375    0.372224
0.628800   0.380167    0.371211
0.630000   0.377083    0.370199
0.631200   0.378542    0.369188
0.632400   0.375542    0.368178
0.633600   0.374500    0.367169
0.634800   0.377292    0.366160
0.636000   0.371500    0.365153
0.637200   0.376917    0.364146
0.638400   0.370500    0.363140
0.639600   0.367542    0.362136
0.640800   0.369958    0.361132
0.642000   0.368500    0.360129
0.643200   0.377000    0.359126
0.644400   0.370792    0.358125
0.645600   0.366250    0.357125
0.646800   0.362750    0.356126
0.648000   0.369250    0.355127
0.649200   0.368458    0.354130
0.650400   0.369167    0.353133
0.651600   0.365250    0.352138
0.652800   0.357000    0.351143
0.654000   0.365583    0.350150
0.655200   0.361833    0.349157
0.656400   0.358750    0.348166
0.657600   0.351458    0.347175
0.658800   0.361208    0.346185
0.660000   0.366417    0.345197
0.661200   0.359458    0.344209
0.662400   0.349917    0.343223
0.663600   0.346792    0.342238
0.664800   0.344667    0.341253
0.666000   0.345583    0.340270
0.667200   0.349083    0.339288
0.668400   0.348750    0.338307
0.669600   0.351667    0.337327
0.670800   0.348042    0.336348
0.672000   0.344500    0.335370
0.673200   0.344083    0.334393
0.674400   0.346917    0.333417
0.675600   0.346250    0.332443
0.676800   0.335583    0.331470
0.678000   0.350000    0.330497
0.679200   0.341833    0.329526
0.680400   0.333625    0.328556
0.681600   0.341250    0.327587
0.682800   0.337417    0.326620
0.684000   0.338458    0.325653
0.685200   0.337125    0.324688
0.686400   0.338833    0.323724
0.687600   0.335417    0.322761
0.688800   0.333042    0.321799
0.690000   0.333750    0.320838
0.691200   0.335042    0.319879
0.692400   0.333750    0.318921
0.693600   0.328292    0.317964
0.694800   0.319750    0.317008
0.696000   0.326583    0.316053
0.697200   0.315250    0.315100
0.698400   0.325125    0.314148
0.699600   0.330083    0.313197
0.700800   0.325292    0.312248
0.702000   0.323083    0.311299
0.703200   0.317750    0.310352
0.704400   0.324583    0.309406
0.705600   0.320625    0.308462
0.706800   0.317125    0.307519
0.708000   0.314458    0.306577
0.709200   0.317708    0.305636
0.710400   0.311167    0.304697
0.711600   0.316333    0.303759
0.712800   0.310250    0.302822
0.714000   0.311458    0.301887
0.715200   0.312500    0.300953
0.716400   0.311667    0.300020
0.717600   0.310333    0.299089
0.718800   0.307542    0.298159
0.720000   0.304000    0.297230
0.721200   0.308042    0.296303
0.722400   0.307250    0.295377
0.723600   0.309500    0.294452
0.724800   0.301333    0.293529
0.726000   0.309292    0.292607
0.727200   0.299542    0.291686
0.728400   0.299417    0.290767
0.729600   0.305417    0.289849
0.730800   0.298125    0.288933
0.732000   0.295333    0.288018
0.733200   0.297792    0.287104
0.734400   0.300125    0.286192
0.735600   0.293125    0.285282
0.736800   0.290167    0.284372
0.738000   0.292583    0.283464
0.739200   0.296167    0.282558
0.740400   0.287750    0.281653
0.741600   0.294458    0.280749
0.742800   0.287125    0.279847
0.744000   0.289250    0.278946
0.745200   0.283167    0.278047
0.746400   0.288792    0.277149
0.747600   0.288583    0.276253
0.748800   0.289000    0.275358
0.750000   0.290333    0.274465
0.751200   0.281167    0.273573
0.752400   0.285333    0.272682
0.753600   0.282417    0.271793
0.754800   0.283125    0.270906
0.756000   0.285958    0.270020
0.757200   0.280833    0.269135
0.758400   0.280958    0.268253
0.759600   0.277583    0.267371
0.760800   0.276917    0.266491
0.762000   0.275625    0.265613
0.763200   0.280167    0.264736
0.764400   0.271792    0.263860
0.765600   0.276042    0.262986
0.766800   0.272292    0.262114
0.768000   0.266792    0.261243
0.769200   0.272542    0.260374
0.770400   0.266500    0.259506
0.771600   0.266250    0.258640
0.772800   0.267458    0.257775
0.774000   0.269167    0.256912
0.775200   0.270042    0.256051
0.776400   0.266500    0.255191
0.777600   0.265333    0.254332
0.778800   0.267708    0.253476
0.780000   0.258083    0.252620
0.781200   0.265417    0.251767
0.782400   0.259500    0.250914
0.783600   0.260417    0.250064
0.784800   0.262375    0.249215
0.786000   0.255417    0.248368
0.787200   0.255417    0.247522
0.788400   0.261917    0.246678
0.789600   0.251708    0.245835
0.790800   0.249542    0.244994
0.792000   0.254875    0.244155
0.793200   0.261292    0.243317
0.794400   0.249958    0.242481
0.795600   0.244833    0.241646
0.796800   0.250083    0.240814
0.798000   0.246000    0.239982
0.799200   0.249958    0.239153
0.800400   0.250250    0.238325
0.801600   0.243250    0.237498
0.802800   0.248875    0.236673
0.804000   0.244208    0.235850
0.805200   0.246625    0.235029
0.806400   0.242708    0.234209
0.807600   0.243750    0.233391
0.808800   0.244458    0.232574
0.810000   0.244500    0.231759
0.811200   0.240583    0.230946
0.812400   0.239750    0.230134
0.813600   0.242625    0.229325
0.814800   0.232458    0.228516
0.816000   0.235917    0.227710
0.817200   0.243625    0.226905
0.818400   0.237458    0.226101
0.819600   0.237667    0.225300
0.820800   0.235000    0.224500
0.822000   0.233875    0.223702
0.823200   0.228250    0.222905
0.824400   0.225042    0.222110
0.825600   0.227000    0.221317
0.826800   0.234417    0.220526
0.828000   0.230375    0.219736
0.829200   0.227333    0.218948
0.830400   0.227250    0.218161
0.831600   0.223708    0.217376
0.832800   0.224167    0.216593
0.834000   0.227125    0.215812
0.835200   0.221042    0.215032
0.836400   0.221292    0.214254
0.837600   0.224167    0.213478
0.838800   0.221917    0.212704
0.840000   0.223583    0.211931
0.841200   0.219125    0.211160
0.842400   0.222667    0.210390
0.843600   0.218042    0.209622
0.844800   0.224208    0.208856
0.846000   0.216875    0.208092
0.847200   0.218208    0.207330
0.848400   0.215083    0.206569
0.849600   0.210917    0.205810
0.850800   0.219583    0.205052
0.852000   0.218333    0.204297
0.853200   0.216917    0.203543
0.854400   0.211750    0.202790
0.855600   0.205708    0.202040
0.856800   0.214042    0.201291
0.858000   0.203333    0.200544
0.859200   0.211708    0.199799
0.860400   0.209625    0.199055
0.861600   0.212167    0.198313
0.862800   0.208750    0.197573
0.864000   0.204750    0.196835
0.865200   0.200542    0.196098
0.866400   0.205000    0.195363
0.867600   0.202708    0.194630
0.868800   0.203250    0.193899
0.870000   0.203958    0.193169
0.871200   0.202083    0.192441
0.872400   0.200667    0.191715
0.873600   0.200500    0.190991
0.874800   0.200542    0.190268
0.876000   0.198375    0.189547
0.877200   0.199792    0.188828
0.878400   0.198583    0.188111
0.879600   0.195083    0.187395
0.880800   0.197667    0.186681
0.882000   0.200333    0.185969
0.883200   0.191917    0.185258
0.884400   0.191250    0.184550
0.885600   0.194083    0.183843
0.886800   0.190208    0.183138
0.888000   0.193583    0.182434
0.889200   0.189208    0.181733
0.890400   0.188500    0.181033
0.891600   0.187125    0.180335
0.892800   0.180125    0.179638
0.894000   0.182375    0.178944
0.895200   0.186542    0.178251
0.896400   0.186833    0.177560
0.897600   0.183875    0.176870
0.898800   0.187333    0.176183
0.900000   0.187375    0.175497
0.901200   0.182250    0.174813
0.902400   0.181792    0.174131
0.903600   0.180917    0.173450
0.904800   0.181167    0.172771
0.906000   0.178042    0.172094
0.907200   0.177417    0.171419
0.908400   0.175583    0.170745
0.909600   0.174875    0.170074
0.910800   0.177583    0.169404
0.912000   0.178833    0.168736
0.913200   0.174167    0.168069
0.914400   0.173583    0.167404
0.915600   0.173917    0.166742
0.916800   0.170542    0.166080
0.918000   0.171583    0.165421
0.919200   0.175042    0.164763
0.920400   0.173583    0.164107
0.921600   0.173333    0.163453
0.922800   0.170667    0.162801
0.924000   0.166083    0.162150
0.925200   0.167583    0.161501
0.926400   0.168667    0.160854
0.927600   0.168125    0.160209
0.928800   0.165958    0.159565
0.930000   0.170083    0.158924
0.931200   0.164292    0.158284
0.932400   0.160792    0.157645
0.933600   0.167458    0.157009
0.934800   0.166292    0.156374
0.936000   0.166083    0.155741
0.937200   0.163458    0.155110
0.938400   0.159875    0.154480
0.939600   0.157333    0.153852
0.940800   0.161083    0.153226
0.942000   0.158167    0.152602
0.943200   0.156250    0.151980
0.944400   0.155125    0.151359
0.945600   0.156125    0.150740
0.946800   0.154792    0.150123
0.948000   0.154417    0.149507
0.949200   0.155208    0.148893
0.950400   0.151083    0.148281
0.951600   0.154083    0.147671
0.952800   0.151292    0.147063
0.954000   0.155792    0.146456
0.955200   0.154875    0.145851
0.956400   0.153292    0.145248
0.957600   0.146792    0.144646
0.958800   0.152083    0.144046
0.960000   0.149042    0.143448
0.961200   0.149542    0.142852
0.962400   0.147625    0.142257
0.963600   0.147542    0.141665
0.964800   0.145958    0.141073
0.966000   0.147750    0.140484
0.967200   0.147458    0.139896
0.968400   0.144667    0.139311
0.969600   0.142542    0.138726
0.970800   0.146417    0.138144
0.972000   0.144958    0.137563
0.973200   0.145833    0.136984
0.974400   0.141917    0.136407
0.975600   0.141750    0.135832
0.976800   0.140042    0.135258
0.978000   0.141750    0.134686
0.979200   0.143958    0.134115
0.980400   0.137583    0.133547
0.981600   0.141417    0.132980
0.982800   0.132708    0.132415
0.984000   0.136792    0.131851
0.985200   0.139917    0.131289
0.986400   0.138208    0.130729
0.987600   0.133667    0.130171
0.988800   0.137458    0.129614
0.990000   0.134167    0.129059
0.991200   0.132958    0.128506
0.992400   0.135625    0.127955
0.993600   0.130542    0.127405
0.994800   0.131167    0.126857
0.996000   0.134250    0.126310
0.997200   0.137833    0.125766
0.998400   0.129250    0.125223
0.999600   0.129458    0.124681
1.000800   0.129958    0.124142
1.002000   0.127583    0.123604
1.003200   0.127333    0.123067
1.004400   0.130458    0.122533
1.005600   0.125250    0.122000
1.006800   0.129833    0.121469
1.008000   0.126000    0.120939
1.009200   0.124625    0.120412
1.010400   0.123708    0.119885
1.011600   0.127042    0.119361
1.012800   0.121917    0.118838
1.014000   0.122750    0.118317
1.015200   0.122167    0.117798
1.016400   0.121375    0.117280
1.017600   0.117542    0.116764
1.018800   0.122250    0.116249
1.020000   0.122708    0.115737
1.021200   0.119750    0.115226
1.022400   0.120292    0.114716
1.023600   0.120083    0.114208
1.024800   0.117250    0.113702
1.026000   0.118125    0.113198
1.027200   0.120250    0.112695
1.028400   0.117958    0.112194
1.029600   0.114958    0.111694
1.030800   0.115250    0.111196
1.032000   0.117542    0.110700
1.033200   0.113792    0.110206
1.034400   0.115208    0.109713
1.035600   0.115125    0.109221
1.036800   0.111750    0.108732
1.038000   0.111000    0.108244
1.039200   0.111000    0.107757
1.040400   0.110292    0.107272
1.041600   0.107250    0.106789
1.042800   0.109667    0.106308
1.044000   0.109708    0.105828
1.045200   0.108833    0.105349
1.046400   0.105542    0.104873
1.047600   0.102250    0.104398
1.048800   0.108000    0.103924
1.050000   0.110292    0.103452
1.051200   0.108083    0.102982
1.052400   0.105208    0.102513
1.053600   0.106125    0.102046
1.054800   0.108667    0.101581
1.056000   0.100250    0.101117
1.057200   0.103708    0.100655
1.058400   0.106958    0.100194
1.059600   0.102708    0.099735
1.060800   0.101125    0.099278
1.062000   0.101542    0.098822
1.063200   0.104542    0.098367
1.064400   0.101792    0.097915
1.065600   0.100708    0.097463
1.066800   0.100458    0.097014
1.068000   0.099875    0.096566
1.069200   0.099125    0.096119
1.070400   0.098667    0.095675
1.071600   0.100042    0.095231
1.072800   0.096625    0.094789
1.074000   0.101083    0.094349
1.075200   0.093958    0.093911
1.076400   0.096500    0.093474
1.077600   0.098625    0.093038
1.078800   0.092750    0.092604
1.080000   0.094708    0.092172
1.081200   0.094917    0.091741
1.082400   0.090750    0.091311
1.083600   0.094542    0.090883
1.084800   0.093958    0.090457
1.086000   0.093875    0.090032
1.087200   0.091917    0.089609
1.088400   0.093958    0.089187
1.089600   0.094083    0.088767
1.090800   0.090500    0.088349
1.092000   0.091917    0.087931
1.093200   0.086583    0.087516
1.094400   0.091167    0.087102
1.095600   0.088417    0.086689
1.096800   0.090500    0.086278
1.098000   0.087042    0.085868
1.099200   0.088542    0.085460
1.100400   0.086583    0.085054
1.101600   0.089417    0.084648
1.102800   0.086833    0.084245
1.104000   0.085500    0.083843
1.105200   0.083917    0.083442
1.106400   0.085708    0.083043
1.107600   0.086042    0.082645
1.108800   0.084292    0.082249
1.110000   0.083833    0.081854
1.111200   0.085417    0.081461
1.112400   0.080042    0.081069
1.113600   0.083792    0.080679
1.114800   0.080167    0.080290
1.116000   0.082875    0.079903
1.117200   0.083333    0.079517
1.118400   0.079250    0.079132
1.119600   0.080292    0.078749
1.120800   0.077208    0.078367
1.122000   0.076500    0.077987
1.123200   0.080583    0.077608
1.124400   0.082000    0.077231
1.125600   0.077375    0.076855
1.126800   0.075708    0.076481
1.128000   0.078375    0.076108
1.129200   0.077292    0.075736
1.130400   0.076333    0.075366
1.131600   0.075917    0.074997
1.132800   0.072250    0.074630
1.134000   0.071792    0.074264
1.135200   0.076000    0.073900
1.136400   0.075333    0.073537
1.137600   0.075333    0.073175
1.138800   0.076167    0.072815
1.140000   0.073417    0.072456
1.141200   0.071542    0.072098
1.142400   0.072417    0.071742
1.143600   0.073667    0.071387
1.144800   0.071542    0.071034
1.146000   0.074542    0.070682
1.147200   0.069750    0.070332
1.148400   0.071292    0.069982
1.149600   0.069625    0.069635
1.150800   0.071875    0.069288
1.152000   0.068042    0.068943
1.153200   0.068958    0.068599
1.154400   0.066708    0.068257
1.155600   0.067958    0.067916
1.156800   0.067250    0.067576
1.158000   0.068333    0.067238
1.159200   0.066083    0.066901
1.160400   0.065875    0.066565
1.161600   0.066000    0.066231
1.162800   0.066125    0.065898
1.164000   0.066500    0.065566
1.165200   0.062875    0.065236
1.166400   0.068250    0.064907
1.167600   0.065833    0.064579
1.168800   0.060583    0.064253
1.170000   0.065042    0.063928
1.171200   0.065583    0.063604
1.172400   0.064000    0.063282
1.173600   0.061167    0.062961
1.174800   0.061042    0.062641
1.176000   0.064083    0.062323
1.177200   0.061250    0.062006
1.178400   0.064667    0.061690
1.179600   0.063458    0.061375
1.180800   0.061458    0.061062
1.182000   0.062208    0.060750
1.183200   0.060292    0.060439
1.184400   0.061750    0.060129
1.185600   0.061583    0.059821
1.186800   0.058833    0.059514
1.188000   0.061250    0.059209
1.189200   0.059708    0.058904
1.190400   0.059125    0.058601
1.191600   0.058833    0.058299
1.192800   0.056458    0.057999
1.194000   0.057792    0.057699
1.195200   0.056958    0.057401
1.196400   0.057917    0.057104
1.197600   0.058375    0.056809
1.198800   0.054208    0.056514
1.200000   0.052792    0.056221
1.201200   0.056917    0.055929
1.202400   0.054417    0.055638
1.203600   0.057250    0.055349
1.204800   0.055833    0.055061
1.206000   0.052792    0.054774
1.207200   0.053083    0.054488
1.208400   0.056083    0.054203
1.209600   0.053708    0.053920
1.210800   0.055417    0.053637
1.212000   0.052333    0.053356
1.213200   0.050792    0.053076
1.214400   0.051208    0.052798
1.215600   0.052750    0.052520
1.216800   0.055833    0.052244
1.218000   0.049000    0.051969
1.219200   0.051667    0.051695
1.220400   0.052250    0.051422
1.221600   0.050250    0.051151
1.222800   0.049625    0.050880
1.224000   0.047417    0.050611
1.225200   0.050750    0.050343
1.226400   0.048875    0.050076
1.227600   0.048167    0.049811
1.228800   0.047917    0.049546
1.230000   0.047542    0.049283
1.231200   0.049208    0.049020
1.232400   0.048292    0.048759
1.233600   0.046208    0.048499
1.234800   0.045958    0.048240
1.236000   0.044792    0.047982
1.237200   0.049375    0.047726
1.238400   0.048542    0.047470
1.239600   0.044750    0.047216
1.240800   0.046417    0.046963
1.242000   0.046958    0.046711
1.243200   0.046417    0.046460
1.244400   0.047083    0.046210
1.245600   0.046667    0.045961
1.246800   0.045500    0.045713
1.248000   0.044792    0.045467
1.249200   0.044667    0.045221
1.250400   0.045042    0.044977
1.251600   0.042042    0.044733
1.252800   0.043875    0.044491
1.254000   0.042958    0.044250
1.255200   0.043458    0.044010
1.256400   0.042667    0.043771
1.257600   0.042167    0.043533
1.258800   0.043167    0.043296
1.260000   0.041083    0.043060
1.261200   0.038875    0.042825
1.262400   0.044875    0.042592
1.263600   0.041708    0.042359
1.264800   0.040042    0.042127
1.266000   0.041042    0.041897
1.267200   0.041667    0.041667
1.268400   0.039000    0.041439
1.269600   0.040417    0.041212
1.270800   0.039667    0.040985
1.272000   0.039792    0.040760
1.273200   0.039000    0.040535
1.274400   0.039125    0.040312
1.275600   0.041000    0.040090
1.276800   0.038792    0.039869
1.278000   0.038583    0.039648
1.279200   0.037875    0.039429
1.280400   0.038917    0.039211
1.281600   0.037500    0.038994
1.282800   0.038250    0.038778
1.284000   0.036292    0.038562
1.285200   0.035792    0.038348
1.286400   0.034417    0.038135
1.287600   0.035458    0.037923
1.288800   0.035792    0.037711
1.290000   0.034833    0.037501
1.291200   0.035333    0.037292
1.292400   0.033875    0.037083
1.293600   0.036042    0.036876
1.294800   0.035250    0.036670
1.296000   0.033083    0.036464
1.297200   0.033083    0.036260
1.298400   0.034792    0.036056
1.299600   0.036083    0.035854
1.300800   0.034375    0.035652
1.302000   0.035292    0.035452
1.303200   0.033458    0.035252
1.304400   0.031792    0.035053
1.305600   0.034750    0.034855
1.306800   0.033042    0.034659
1.308000   0.031792    0.034463
1.309200   0.034333    0.034268
1.310400   0.031583    0.034073
1.311600   0.031500    0.033880
1.312800   0.033625    0.033688
1.314000   0.032750    0.033497
1.315200   0.030500    0.033306
1.316400   0.031417    0.033117
1.317600   0.028542    0.032928
1.318800   0.030792    0.032741
1.320000   0.029833    0.032554
1.321200   0.031000    0.032368
1.322400   0.031500    0.032183
1.323600   0.031583    0.031999
1.324800   0.028917    0.031816
1.326000   0.028958    0.031633
1.327200   0.029333    0.031452
1.328400   0.028875    0.031271
1.329600   0.027625    0.031091
1.330800   0.028708    0.030913
1.332000   0.028292    0.030735
1.333200   0.027292    0.030558
1.334400   0.029750    0.030381
1.335600   0.026875    0.030206
1.336800   0.028542    0.030031
1.338000   0.027708    0.029858
1.339200   0.026417    0.029685
1.340400   0.027292    0.029513
1.341600   0.028167    0.029342
1.342800   0.026875    0.029172
1.344000   0.026375    0.029002
1.345200   0.025917    0.028833
1.346400   0.026542    0.028666
1.347600   0.026792    0.028499
1.348800   0.025917    0.028333
1.350000   0.026833    0.028167
1.351200   0.026083    0.028003
1.352400   0.025542    0.027839
1.353600   0.024583    0.027676
1.354800   0.025333    0.027514
1.356000   0.025083    0.027353
1.357200   0.026750    0.027193
1.358400   0.023250    0.027033
1.359600   0.024458    0.026874
1.360800   0.023625    0.026716
1.362000   0.024792    0.026559
1.363200   0.022708    0.026402
1.364400   0.022833    0.026247
1.365600   0.024292    0.026092
1.366800   0.023292    0.025938
1.368000   0.022750    0.025784
1.369200   0.022917    0.025632
1.370400   0.022958    0.025480
1.371600   0.023375    0.025329
1.372800   0.023625    0.025179
1.374000   0.022542    0.025029
1.375200   0.023333    0.024880
1.376400   0.022750    0.024732
1.377600   0.021958    0.024585
1.378800   0.020875    0.024439
1.380000   0.022333    0.024293
1.381200   0.025250    0.024148
1.382400   0.021458    0.024003
1.383600   0.021958    0.023860
1.384800   0.021500    0.023717
1.386000   0.019917    0.023575
1.387200   0.020875    0.023434
1.388400   0.021792    0.023293
1.389600   0.021333    0.023153
1.390800   0.020917    0.023014
1.392000   0.021000    0.022876
1.393200   0.019208    0.022738
1.394400   0.021042    0.022601
1.395600   0.020042    0.022465
1.396800   0.020250    0.022329
1.398000   0.019500    0.022194
1.399200   0.019417    0.022060
1.400400   0.018875    0.021926
1.401600   0.020292    0.021794
1.402800   0.019125    0.021661
1.404000   0.020542    0.021530
1.405200   0.018667    0.021399
1.406400   0.017917    0.021269
1.407600   0.018833    0.021140
1.408800   0.018417    0.021011
1.410000   0.017625    0.020883
1.411200   0.018083    0.020756
1.412400   0.018167    0.020629
1.413600   0.018208    0.020503
1.414800   0.016875    0.020378
1.416000   0.019042    0.020253
1.417200   0.018333    0.020129
1.418400   0.017375    0.020006
1.419600   0.017708    0.019883
1.420800   0.016625    0.019761
1.422000   0.017042    0.019639
1.423200   0.017292    0.019519
1.424400   0.016750    0.019398
1.425600   0.017000    0.019279
1.426800   0.017917    0.019160
1.428000   0.016083    0.019042
1.429200   0.015000    0.018924
1.430400   0.016292    0.018807
1.431600   0.015750    0.018691
1.432800   0.016000    0.018575
1.434000   0.014833    0.018460
1.435200   0.016458    0.018346
1.436400   0.016708    0.018232
1.437600   0.014625    0.018119
1.438800   0.015000    0.018006
1.440000   0.015875    0.017894
1.441200   0.015125    0.017782
1.442400   0.015042    0.017672
1.443600   0.014375    0.017561
1.444800   0.017167    0.017452
1.446000   0.015417    0.017343
1.447200   0.015083    0.017234
1.448400   0.014583    0.017126
1.449600   0.014917    0.017019
1.450800   0.014208    0.016912
1.452000   0.013833    0.016806
1.453200   0.013958    0.016701
1.454400   0.014667    0.016596
1.455600   0.014333    0.016491
1.456800   0.013667    0.016388
1.458000   0.013667    0.016284
1.459200   0.014875    0.016182
1.460400   0.013875    0.016080
1.461600   0.013500    0.015978
1.462800   0.012625    0.015877
1.464000   0.012542    0.015777
1.465200   0.012500    0.015677
1.466400   0.014750    0.015577
1.467600   0.013875    0.015479
1.468800   0.013667    0.015380
1.470000   0.012583    0.015283
1.471200   0.012792    0.015185
1.472400   0.013000    0.015089
1.473600   0.012292    0.014993
1.474800   0.012375    0.014897
1.476000   0.012208    0.014802
1.477200   0.012042    0.014708
1.478400   0.012583    0.014614
1.479600   0.011167    0.014520
1.480800   0.011417    0.014427
1.482000   0.011958    0.014335
1.483200   0.012583    0.014243
1.484400   0.011500    0.014152
1.485600   0.012125    0.014061
1.486800   0.012917    0.013971
1.488000   0.010833    0.013881
1.489200   0.011042    0.013792
1.490400   0.010833    0.013703
1.491600   0.010625    0.013614
1.492800   0.010750    0.013527
1.494000   0.010292    0.013439
1.495200   0.010417    0.013352
1.496400   0.010875    0.013266
1.497600   0.011500    0.013180
1.498800   0.010167    0.013095
1.500000   0.010000    0.013010
1.501200   0.011875    0.012926
1.502400   0.010000    0.012842
1.503600   0.009625    0.012758
1.504800   0.011500    0.012675
1.506000   0.010708    0.012593
1.507200   0.010958    0.012511
1.508400   0.010125    0.012429
1.509600   0.010083    0.012348
1.510800   0.008833    0.012268
1.512000   0.009833    0.012188
1.513200   0.009792    0.012108
1.514400   0.009000    0.012029
1.515600   0.009792    0.011950
1.516800   0.009750    0.011872
1.518000   0.009750    0.011794
1.519200   0.008625    0.011716
1.520400   0.009458    0.011639
1.521600   0.009708    0.011563
1.522800   0.009833    0.011487
1.524000   0.010500    0.011411
1.525200   0.008333    0.011336
1.526400   0.008750    0.011261
1.527600   0.008792    0.011187
1.528800   0.008458    0.011113
1.530000   0.008625    0.011039
1.531200   0.009250    0.010966
1.532400   0.007792    0.010894
1.533600   0.008875    0.010822
1.534800   0.008125    0.010750
1.536000   0.008167    0.010679
1.537200   0.008500    0.010608
1.538400   0.009167    0.010537
1.539600   0.009208    0.010467
1.540800   0.008083    0.010397
1.542000   0.007833    0.010328
1.543200   0.007625    0.010259
1.544400   0.008208    0.010191
1.545600   0.008417    0.010123
1.546800   0.007875    0.010055
1.548000   0.007542    0.009988
1.549200   0.008042    0.009921
1.550400   0.007375    0.009855
1.551600   0.006667    0.009788
1.552800   0.007667    0.009723
1.554000   0.006958    0.009658
1.555200   0.007250    0.009593
1.556400   0.006708    0.009528
1.557600   0.008208    0.009464
1.558800   0.007250    0.009400
1.560000   0.007375    0.009337
1.561200   0.006583    0.009274
1.562400   0.006708    0.009211
1.563600   0.007292    0.009149
1.564800   0.006583    0.009087
1.566000   0.006792    0.009026
1.567200   0.006625    0.008965
1.568400   0.006792    0.008904
1.569600   0.005833    0.008844
1.570800   0.006042    0.008784
1.572000   0.005833    0.008724
1.573200   0.006042    0.008665
1.574400   0.006542    0.008606
1.575600   0.006000    0.008547
1.576800   0.006458    0.008489
1.578000   0.006542    0.008431
1.579200   0.006667    0.008374
1.580400   0.005917    0.008316
1.581600   0.005833    0.008260
1.582800   0.006875    0.008203
1.584000   0.006750    0.008147
1.585200   0.006000    0.008091
1.586400   0.005458    0.008036
1.587600   0.006083    0.007981
1.588800   0.005250    0.007926
1.590000   0.005083    0.007871
1.591200   0.005458    0.007817
1.592400   0.004833    0.007763
1.593600   0.005750    0.007710
1.594800   0.005167    0.007657
1.596000   0.004583    0.007604
1.597200   0.005292    0.007552
1.598400   0.006042    0.007500
1.599600   0.005542    0.007448
1.600800   0.005667    0.007396
1.602000   0.004958    0.007345
1.603200   0.004625    0.007294
1.604400   0.004708    0.007244
1.605600   0.004917    0.007193
1.606800   0.005917    0.007143
1.608000   0.004292    0.007094
1.609200   0.005208    0.007044
1.610400   0.004333    0.006995
1.611600   0.004167    0.006947
1.612800   0.004792    0.006898
1.614000   0.004375    0.006850
1.615200   0.005083    0.006802
1.616400   0.004208    0.006755
1.617600   0.004792    0.006708
1.618800   0.003833    0.006661
1.620000   0.004333    0.006614
1.621200   0.005083    0.006568
1.622400   0.003458    0.006522
1.623600   0.004708    0.006476
1.624800   0.004208    0.006431
1.626000   0.004083    0.006386
1.627200   0.003833    0.006341
1.628400   0.004458    0.006296
1.629600   0.003333    0.006252
1.630800   0.003750    0.006208
1.632000   0.004542    0.006164
1.633200   0.004125    0.006120
1.634400   0.004292    0.006077
1.635600   0.004667    0.006034
1.636800   0.003958    0.005992
1.638000   0.004042    0.005949
1.639200   0.003542    0.005907
1.640400   0.004208    0.005865
1.641600   0.004167    0.005824
1.642800   0.003167    0.005782
1.644000   0.004000    0.005741
1.645200   0.004333    0.005701
1.646400   0.004000    0.005660
1.647600   0.003833    0.005620
1.648800   0.003417    0.005580
1.650000   0.003667    0.005540
1.651200   0.003125    0.005500
1.652400   0.003667    0.005461
1.653600   0.003042    0.005422
1.654800   0.003375    0.005383
1.656000   0.003250    0.005345
1.657200   0.003250    0.005307
1.658400   0.003750    0.005269
1.659600   0.004042    0.005231
1.660800   0.003167    0.005193
1.662000   0.003833    0.005156
1.663200   0.003333    0.005119
1.664400   0.002500    0.005082
1.665600   0.002667    0.005046
1.666800   0.003500    0.005009
1.668000   0.003375    0.004973
1.669200   0.003333    0.004937
1.670400   0.003500    0.004902
1.671600   0.002625    0.004866
1.672800   0.003458    0.004831
1.674000   0.003667    0.004796
1.675200   0.003958    0.004762
1.676400   0.003333    0.004727
1.677600   0.003083    0.004693
1.678800   0.003375    0.004659
1.680000   0.002833    0.004625
1.681200   0.003000    0.004591
1.682400   0.003250    0.004558
1.683600   0.003083    0.004525
1.684800   0.002083    0.004492
1.686000   0.002583    0.004459
1.687200   0.003000    0.004427
1.688400   0.003458    0.004394
1.689600   0.002667    0.004362
1.690800   0.002958    0.004331
1.692000   0.002083    0.004299
1.693200   0.002375    0.004267
1.694400   0.003083    0.004236
1.695600   0.002542    0.004205
1.696800   0.002750    0.004174
1.698000   0.002250    0.004144
1.699200   0.002458    0.004113
1.700400   0.002042    0.004083
1.701600   0.002625    0.004053
1.702800   0.002375    0.004023
1.704000   0.002042    0.003994
1.705200   0.002208    0.003964
1.706400   0.002417    0.003935
1.707600   0.001958    0.003906
1.708800   0.002417    0.003877
1.710000   0.001958    0.003849
1.711200   0.002500    0.003820
1.712400   0.002125    0.003792
1.713600   0.001458    0.003764
1.714800   0.001625    0.003736
1.716000   0.001708    0.003708
1.717200   0.002208    0.003681
1.718400   0.001750    0.003653
1.719600   0.002125    0.003626
1.720800   0.001917    0.003599
1.722000   0.001792    0.003573
1.723200   0.002000    0.003546
1.724400   0.002042    0.003520
1.725600   0.002083    0.003493
1.726800   0.001625    0.003467
1.728000   0.001458    0.003441
1.729200   0.002042    0.003416
1.730400   0.002375    0.003390
1.731600   0.002125    0.003365
1.732800   0.001750    0.003340
1.734000   0.001583    0.003315
1.735200   0.002458    0.003290
1.736400   0.001708    0.003265
1.737600   0.001833    0.003241
1.738800   0.001833    0.003216
1.740000   0.001833    0.003192
1.741200   0.001125    0.003168
1.742400   0.001417    0.003144
1.743600   0.001292    0.003121
1.744800   0.001667    0.003097
1.746000   0.001667    0.003074
1.747200   0.001750    0.003051
1.748400   0.001708    0.003028
1.749600   0.001333    0.003005
1.750800   0.001792    0.002982
1.752000   0.001750    0.002959
1.753200   0.001208    0.002937
1.754400   0.001125    0.002915
1.755600   0.001542    0.002893
1.756800   0.001458    0.002871
1.758000   0.001458    0.002849
1.759200   0.001583    0.002827
1.760400   0.001292    0.002806
1.761600   0.001958    0.002784
1.762800   0.001625    0.002763
1.764000   0.002042    0.002742
1.765200   0.000958    0.002721
1.766400   0.001917    0.002701
1.767600   0.001583    0.002680
1.768800   0.001292    0.002659
1.770000   0.001583    0.002639
1.771200   0.001417    0.002619
1.772400   0.001292    0.002599
1.773600   0.001417    0.002579
1.774800   0.001125    0.002559
1.776000   0.001375    0.002540
1.777200   0.001042    0.002520
1.778400   0.001542    0.002501
1.779600   0.001500    0.002481
1.780800   0.001250    0.002462
1.782000   0.000958    0.002443
1.783200   0.001083    0.002425
1.784400   0.001250    0.002406
1.785600   0.000958    0.002387
1.786800   0.000917    0.002369
1.788000   0.000875    0.002351
1.789200   0.001083    0.002333
1.790400   0.001000    0.002315
1.791600   0.001458    0.002297
1.792800   0.001042    0.002279
1.794000   0.001417    0.002261
1.795200   0.001625    0.002244
1.796400   0.001125    0.002226
1.797600   0.001083    0.002209
1.798800   0.001042    0.002192
1.800000   0.000958    0.002175
1.801200   0.000875    0.002158
1.802400   0.001083    0.002141
1.803600   0.001000    0.002124
1.804800   0.001208    0.002108
1.806000   0.000750    0.002091
1.807200   0.001542    0.002075
1.808400   0.000833    0.002059
1.809600   0.000875    0.002043
1.810800   0.000917    0.002027
1.812000   0.000708    0.002011
1.813200   0.000625    0.001995
1.814400   0.001208    0.001980
1.815600   0.000917    0.001964
1.816800   0.001083    0.001949
1.818000   0.001250    0.001933
1.819200   0.000708    0.001918
1.820400   0.000958    0.001903
1.821600   0.000792    0.001888
1.822800   0.000917    0.001873
1.824000   0.000917    0.001858
1.825200   0.000792    0.001844
1.826400   0.000750    0.001829
1.827600   0.000833    0.001815
1.828800   0.001000    0.001801
1.830000   0.000625    0.001786
1.831200   0.000792    0.001772
1.832400   0.000917    0.001758
1.833600   0.000917    0.001744
1.834800   0.000583    0.001730
1.836000   0.000583    0.001717
1.837200   0.000667    0.001703
1.838400   0.000917    0.001690
1.839600   0.000667    0.001676
1.840800   0.000417    0.001663
1.842000   0.000417    0.001650
1.843200   0.000375    0.001636
1.844400   0.000750    0.001623
1.845600   0.000292    0.001610
1.846800   0.000417    0.001598
1.848000   0.000583    0.001585
1.849200   0.000625    0.001572
1.850400   0.000667    0.001560
1.851600   0.000917    0.001547
1.852800   0.000708    0.001535
1.854000   0.000458    0.001523
1.855200   0.000917    0.001510
1.856400   0.000750    0.001498
1.857600   0.000542    0.001486
1.858800   0.000500    0.001474
1.860000   0.000667    0.001462
1.861200   0.000292    0.001451
1.862400   0.000875    0.001439
1.863600   0.000667    0.001427
1.864800   0.000458    0.001416
1.866000   0.000458    0.001405
1.867200   0.000375    0.001393
1.868400   0.000333    0.001382
1.869600   0.000333    0.001371
1.870800   0.000583    0.001360
1.872000   0.000625    0.001349
1.873200   0.000583    0.001338
1.874400   0.000542    0.001327
1.875600   0.000542    0.001316
1.876800   0.000583    0.001306
1.878000   0.000750    0.001295
1.879200   0.000417    0.001285
1.880400   0.000667    0.001274
1.881600   0.000667    0.001264
1.882800   0.000167    0.001253
1.884000   0.000458    0.001243
1.885200   0.000417    0.001233
1.886400   0.000417    0.001223
1.887600   0.000583    0.001213
1.888800   0.000583    0.001203
1.890000   0.000625    0.001193
1.891200   0.000667    0.001184
1.892400   0.000250    0.001174
1.893600   0.000542    0.001164
1.894800   0.000208    0.001155
1.896000   0.000458    0.001145
1.897200   0.000375    0.001136
1.898400   0.000500    0.001127
1.899600   0.000250    0.001118
1.900800   0.000542    0.001108
1.902000   0.000375    0.001099
1.903200   0.000417    0.001090
1.904400   0.000250    0.001081
1.905600   0.000583    0.001072
1.906800   0.000375    0.001064
1.908000   0.000375    0.001055
1.909200   0.000417    0.001046
1.910400   0.000375    0.001037
1.911600   0.000208    0.001029
1.912800   0.000375    0.001020
1.914000   0.000417    0.001012
1.915200   0.000292    0.001004
1.916400   0.000208    0.000995
1.917600   0.000250    0.000987
1.918800   0.000208    0.000979
1.920000   0.000458    0.000971
1.921200   0.000167    0.000963
1.922400   0.000292    0.000955
1.923600   0.000125    0.000947
1.924800   0.000208    0.000939
1.926000   0.000375    0.000931
1.927200   0.000167    0.000923
1.928400   0.000417    0.000916
1.929600   0.000458    0.000908
1.930800   0.000333    0.000900
1.932000   0.000208    0.000893
1.933200   0.000250    0.000886
1.934400   0.000583    0.000878
1.935600   0.000250    0.000871
1.936800   0.000333    0.000864
1.938000   0.000333    0.000856
1.939200   0.000417    0.000849
1.940400   0.000375    0.000842
1.941600   0.000333    0.000835
1.942800   0.000417    0.000828
1.944000   0.000292    0.000821
1.945200   0.000250    0.000814
1.946400   0.000250    0.000807
1.947600   0.000083    0.000800
1.948800   0.000125    0.000794
1.950000   0.000333    0.000787
1.951200   0.000125    0.000780
1.952400   0.000167    0.000774
1.953600   0.000167    0.000767
1.954800   0.000333    0.000761
1.956000   0.000208    0.000754
1.957200   0.000250    0.000748
1.958400   0.000292    0.000742
1.959600   0.000208    0.000735
1.960800   0.000292    0.000729
1.962000   0.000250    0.000723
1.963200   0.000250    0.000717
1.964400   0.000208    0.000711
1.965600   0.000083    0.000705
1.966800   0.000125    0.000699
1.968000   0.000250    0.000693
1.969200   0.000000    0.000687
1.970400   0.000000    0.000681
1.971600   0.000125    0.000675
1.972800   0.000083    0.000670
1.974000   0.000292    0.000664
1.975200   0.000083    0.000658
1.976400   0.000042    0.000653
1.977600   0.000167    0.000647
1.978800   0.000167    0.000642
1.980000   0.000208    0.000636
1.981200   0.000292    0.000631
1.982400   0.000208    0.000625
1.983600   0.000208    0.000620
1.984800   0.000125    0.000615
1.986000   0.000375    0.000609
1.987200   0.000208    0.000604
1.988400   0.000042    0.000599
1.989600   0.000083    0.000594
1.990800   0.000125    0.000589
1.992000   0.000042    0.000584
1.993200   0.000208    0.000579
1.994400   0.000042    0.000574
1.995600   0.000042    0.000569
1.996800   0.000292    0.000564
1.998000   0.000042    0.000559
1.999200   0.000208    0.000554
2.000400   0.000208    0.000549
2.001600   0.000125    0.000545
2.002800   0.000083    0.000540
2.004000   0.000083    0.000535
2.005200   0.000208    0.000530
2.006400   0.000083    0.000526
2.007600   0.000167    0.000521
2.008800   0.000125    0.000517
2.010000   0.000167    0.000512
2.011200   0.000083    0.000508
2.012400   0.000125    0.000503
2.013600   0.000167    0.000499
2.014800   0.000083    0.000495
2.016000   0.000042    0.000490
2.017200   0.000083    0.000486
2.018400   0.000250    0.000482
2.019600   0.000167    0.000478
2.020800   0.000125    0.000474
2.022000   0.000250    0.000469
2.023200   0.000208    0.000465
2.024400   0.000125    0.000461
2.025600   0.000125    0.000457
2.026800   0.000125    0.000453
2.028000   0.000125    0.000449
2.029200   0.000083    0.000445
2.030400   0.000125    0.000441
2.031600   0.000167    0.000438
2.032800   0.000167    0.000434
2.034000   0.000000    0.000430
2.035200   0.000125    0.000426
2.036400   0.000042    0.000422
2.037600   0.000042    0.000419
2.038800   0.000000    0.000415
2.040000   0.000125    0.000411
2.041200   0.000250    0.000408
2.042400   0.000125    0.000404
2.043600   0.000125    0.000401
2.044800   0.000083    0.000397
2.046000   0.000083    0.000394
2.047200   0.000083    0.000390
2.048400   0.000042    0.000387
2.049600   0.000000    0.000383
2.050800   0.000125    0.000380
2.052000   0.000000    0.000376
2.053200   0.000000    0.000373
2.054400   0.000083    0.000370
2.055600   0.000000    0.000367
2.056800   0.000083    0.000363
2.058000   0.000000    0.000360
2.059200   0.000083    0.000357
2.060400   0.000083    0.000354
2.061600   0.000042    0.000351
2.062800   0.000042    0.000347
2.064000   0.000000    0.000344
2.065200   0.000125    0.000341
2.066400   0.000000    0.000338
2.067600   0.000125    0.000335
2.068800   0.000167    0.000332
2.070000   0.000000    0.000329
2.071200   0.000125    0.000326
2.072400   0.000083    0.000323
2.073600   0.000000    0.000320
2.074800   0.000042    0.000318
2.076000   0.000042    0.000315
2.077200   0.000083    0.000312
2.078400   0.000042    0.000309
2.079600   0.000000    0.000306
2.080800   0.000083    0.000304
2.082000   0.000000    0.000301
2.083200   0.000000    0.000298
2.084400   0.000042    0.000295
2.085600   0.000000    0.000293
2.086800   0.000000    0.000290
2.088000   0.000000    0.000288
2.089200   0.000000    0.000285
2.090400   0.000000    0.000282
2.091600   0.000000    0.000280
2.092800   0.000000    0.000277
2.094000   0.000042    0.000275
2.095200   0.000042    0.000272
2.096400   0.000000    0.000270
2.097600   0.000000    0.000267
2.098800   0.000042    0.000265
2.100000   0.000000    0.000263
2.101200   0.000000    0.000260
2.102400   0.000000    0.000258
2.103600   0.000000    0.000256
2.104800   0.000000    0.000253
2.106000   0.000000    0.000251
2.107200   0.000042    0.000249
2.108400   0.000042    0.000246
2.109600   0.000042    0.000244
2.110800   0.000000    0.000242
2.112000   0.000000    0.000240
2.113200   0.000042    0.000237
2.114400   0.000000    0.000235
2.115600   0.000042    0.000233
2.116800   0.000042    0.000231
2.118000   0.000000    0.000229
2.119200   0.000042    0.000227
2.120400   0.000000    0.000225
2.121600   0.000000    0.000223
2.122800   0.000000    0.000221
2.124000   0.000042    0.000219
2.125200   0.000042    0.000217
2.126400   0.000083    0.000215
2.127600   0.000000    0.000213
2.128800   0.000000    0.000211
2.130000   0.000000    0.000209
2.131200   0.000000    0.000207
2.132400   0.000000    0.000205
2.133600   0.000000    0.000203
2.134800   0.000000    0.000201
2.136000   0.000042    0.000199
2.137200   0.000000    0.000198
2.138400   0.000000    0.000196
2.139600   0.000000    0.000194
2.140800   0.000000    0.000192
2.142000   0.000000    0.000190
2.143200   0.000042    0.000189
2.144400   0.000000    0.000187
2.145600   0.000042    0.000185
2.146800   0.000000    0.000183
2.148000   0.000000    0.000182
2.149200   0.000000    0.000180
2.150400   0.000000    0.000178
2.151600   0.000042    0.000177
2.152800   0.000000    0.000175
2.154000   0.000000    0.000173
2.155200   0.000042    0.000172
2.156400   0.000000    0.000170
2.157600   0.000083    0.000169
2.158800   0.000000    0.000167
2.160000   0.000042    0.000165
2.161200   0.000000    0.000164
2.162400   0.000083    0.000162
2.163600   0.000000    0.000161
2.164800   0.000000    0.000159
2.166000   0.000042    0.000158
2.167200   0.000042    0.000156
2.168400   0.000042    0.000155
2.169600   0.000000    0.000153
2.170800   0.000000    0.000152
2.172000   0.000042    0.000151
2.173200   0.000000    0.000149
2.174400   0.000000    0.000148
2.175600   0.000000    0.000146
2.176800   0.000042    0.000145
2.178000   0.000000    0.000144
2.179200   0.000042    0.000142
2.180400   0.000000    0.000141
2.181600   0.000000    0.000140
2.182800   0.000000    0.000138
2.184000   0.000042    0.000137
2.185200   0.000000    0.000136
2.186400   0.000000    0.000134
2.187600   0.000000    0.000133
2.188800   0.000000    0.000132
2.190000   0.000000    0.000131
2.191200   0.000042    0.000129
2.192400   0.000000    0.000128
2.193600   0.000000    0.000127
2.194800   0.000000    0.000126
2.196000   0.000083    0.000125
2.197200   0.000000    0.000123
2.198400   0.000000    0.000122
2.199600   0.000000    0.000121
2.200800   0.000000    0.000120
2.202000   0.000000    0.000119
2.203200   0.000083    0.000118
2.204400   0.000000    0.000117
2.205600   0.000000    0.000115
2.206800   0.000000    0.000114
2.208000   0.000000    0.000113
2.209200   0.000000    0.000112
2.210400   0.000000    0.000111
2.211600   0.000000    0.000110
2.212800   0.000000    0.000109
2.214000   0.000000    0.000108
2.215200   0.000000    0.000107
2.216400   0.000000    0.000106
2.217600   0.000000    0.000105
2.218800   0.000000    0.000104
2.220000   0.000042    0.000103
2.221200   0.000000    0.000102
2.222400   0.000000    0.000101
2.223600   0.000000    0.000100
2.224800   0.000000    0.000099
2.226000   0.000000    0.000098
2.227200   0.000000    0.000097
2.228400   0.000000    0.000096
2.229600   0.000000    0.000095
2.230800   0.000000    0.000094
2.232000   0.000000    0.000093
2.233200   0.000000    0.000093
2.234400   0.000000    0.000092
2.235600   0.000000    0.000091
2.236800   0.000000    0.000090
2.238000   0.000000    0.000089
2.239200   0.000000    0.000088
2.240400   0.000000    0.000087
2.241600   0.000000    0.000086
2.242800   0.000000    0.000086
2.244000   0.000000    0.000085
2.245200   0.000000    0.000084
2.246400   0.000042    0.000083
2.247600   0.000042    0.000082
2.248800   0.000000    0.000082
2.250000   0.000000    0.000081
2.251200   0.000000    0.000080
2.252400   0.000000    0.000079
2.253600   0.000000    0.000078
2.254800   0.000000    0.000078
2.256000   0.000000    0.000077
2.257200   0.000000    0.000076
2.258400   0.000000    0.000075
2.259600   0.000000    0.000075
2.260800   0.000000    0.000074
2.262000   0.000000    0.000073
2.263200   0.000000    0.000073
2.264400   0.000000    0.000072
2.265600   0.000000    0.000071
2.266800   0.000000    0.000070
2.268000   0.000000    0.000070
2.269200   0.000000    0.000069
2.270400   0.000000    0.000068
2.271600   0.000000    0.000068
2.272800   0.000000    0.000067
2.274000   0.000000    0.000066
2.275200   0.000000    0.000066
2.276400   0.000000    0.000065
2.277600   0.000000    0.000064
2.278800   0.000000    0.000064
2.280000   0.000000    0.000063
2.281200   0.000000    0.000063
2.282400   0.000000    0.000062
2.283600   0.000000    0.000061
2.284800   0.000000    0.000061
2.286000   0.000000    0.000060
2.287200   0.000000    0.000060
2.288400   0.000000    0.000059
2.289600   0.000042    0.000058
2.290800   0.000000    0.000058
2.292000   0.000000    0.000057
2.293200   0.000000    0.000057
2.294400   0.000000    0.000056
2.295600   0.000000    0.000056
2.296800   0.000000    0.000055
2.298000   0.000000    0.000054
2.299200   0.000000    0.000054
2.300400   0.000042    0.000053
2.301600   0.000000    0.000053
2.302800   0.000000    0.000052
2.304000   0.000000    0.000052
2.305200   0.000000    0.000051
2.306400   0.000000    0.000051
2.307600   0.000000    0.000050
2.308800   0.000000    0.000050
2.310000   0.000000    0.000049
2.311200   0.000000    0.000049
2.312400   0.000042    0.000048
2.313600   0.000000    0.000048
2.314800   0.000000    0.000047
2.316000   0.000000    0.000047
2.317200   0.000000    0.000046
2.318400   0.000000    0.000046
2.319600   0.000000    0.000045
2.320800   0.000000    0.000045
2.322000   0.000000    0.000045
2.323200   0.000000    0.000044
2.324400   0.000000    0.000044
2.325600   0.000000    0.000043
2.326800   0.000000    0.000043
2.328000   0.000000    0.000042
2.329200   0.000000    0.000042
2.330400   0.000000    0.000042
2.331600   0.000000    0.000041
2.332800   0.000000    0.000041
2.334000   0.000000    0.000040
2.335200   0.000000    0.000040
2.336400   0.000000    0.000039
2.337600   0.000000    0.000039
2.338800   0.000000    0.000039
2.340000   0.000000    0.000038
2.341200   0.000000    0.000038
2.342400   0.000000    0.000038
2.343600   0.000000    0.000037
2.344800   0.000000    0.000037
2.346000   0.000000    0.000036
2.347200   0.000000    0.000036
2.348400   0.000000    0.000036
2.349600   0.000000    0.000035
2.350800   0.000000    0.000035
2.352000   0.000000    0.000035
2.353200   0.000000    0.000034
2.354400   0.000000    0.000034
2.355600   0.000000    0.000034
2.356800   0.000000    0.000033
2.358000   0.000000    0.000033
2.359200   0.000000    0.000033
2.360400   0.000000    0.000032
2.361600   0.000000    0.000032
2.362800   0.000000    0.000032
2.364000   0.000000    0.000031
2.365200   0.000000    0.000031
2.366400   0.000000    0.000031
2.367600   0.000000    0.000030
2.368800   0.000000    0.000030
2.370000   0.000000    0.000030
2.371200   0.000000    0.000029
2.372400   0.000000    0.000029
2.373600   0.000000    0.000029
2.374800   0.000000    0.000028
2.376000   0.000000    0.000028
2.377200   0.000000    0.000028
2.378400   0.000000    0.000028
2.379600   0.000000    0.000027
2.380800   0.000000    0.000027
2.382000   0.000000    0.000027
2.383200   0.000000    0.000026
2.384400   0.000000    0.000026
2.385600   0.000000    0.000026
2.386800   0.000000    0.000026
2.388000   0.000000    0.000025
2.389200   0.000000    0.000025
2.390400   0.000000    0.000025
2.391600   0.000000    0.000025
2.392800   0.000000    0.000024
2.394000   0.000000    0.000024
2.395200   0.000000    0.000024
2.396400   0.000000    0.000024
2.397600   0.000000    0.000023
2.398800   0.000000    0.000023
2.400000   0.000000    0.000023
2.401200   0.000000    0.000023
2.402400   0.000000    0.000022
2.403600   0.000000    0.000022
2.404800   0.000000    0.000022
2.406000   0.000000    0.000022
2.407200   0.000000    0.000022
2.408400   0.000000    0.000021
2.409600   0.000000    0.000021
2.410800   0.000000    0.000021
2.412000   0.000000    0.000021
2.413200   0.000000    0.000020
2.414400   0.000000    0.000020
2.415600   0.000000    0.000020
2.416800   0.000000    0.000020
2.418000   0.000000    0.000020
2.419200   0.000000    0.000019
2.420400   0.000000    0.000019
2.421600   0.000000    0.000019
2.422800   0.000000    0.000019
2.424000   0.000000    0.000019
2.425200   0.000000    0.000018
2.426400   0.000000    0.000018
2.427600   0.000000    0.000018
2.428800   0.000000    0.000018
2.430000   0.000000    0.000018
2.431200   0.000000    0.000017
2.432400   0.000000    0.000017
2.433600   0.000000    0.000017
2.434800   0.000000    0.000017
2.436000   0.000000    0.000017
2.437200   0.000000    0.000017
2.438400   0.000000    0.000016
2.439600   0.000000    0.000016
2.440800   0.000000    0.000016
2.442000   0.000000    0.000016
2.443200   0.000000    0.000016
2.444400   0.000000    0.000016
2.445600   0.000000    0.000015
2.446800   0.000000    0.000015
2.448000   0.000000    0.000015
2.449200   0.000000    0.000015
2.450400   0.000000    0.000015
2.451600   0.000000    0.000015
2.452800   0.000000    0.000014
2.454000   0.000000    0.000014
2.455200   0.000000    0.000014
2.456400   0.000000    0.000014
2.457600   0.000000    0.000014
2.458800   0.000000    0.000014
2.460000   0.000000    0.000014
2.461200   0.000000    0.000013
2.462400   0.000000    0.000013
2.463600   0.000000    0.000013
2.464800   0.000000    0.000013
2.466000   0.000000    0.000013
2.467200   0.000000    0.000013
2.468400   0.000000    0.000013
2.469600   0.000000    0.000012
2.470800   0.000000    0.000012
2.472000   0.000000    0.000012
2.473200   0.000000    0.000012
2.474400   0.000000    0.000012
2.475600   0.000000    0.000012
2.476800   0.000000    0.000012
2.478000   0.000000    0.000012
2.479200   0.000000    0.000011
2.480400   0.000000    0.000011
2.481600   0.000000    0.000011
2.482800   0.000000    0.000011
2.484000   0.000000    0.000011
2.485200   0.000000    0.000011
2.486400   0.000000    0.000011
2.487600   0.000000    0.000011
2.488800   0.000000    0.000010
2.490000   0.000000    0.000010
2.491200   0.000000    0.000010
2.492400   0.000000    0.000010
2.493600   0.000000    0.000010
2.494800   0.000000    0.000010
2.496000   0.000000    0.000010
2.497200   0.000000    0.000010
2.498400   0.000000    0.000010
2.499600   0.000000    0.000009
2.500800   0.000000    0.000009
2.502000   0.000000    0.000009
2.503200   0.000000    0.000009
2.504400   0.000000    0.000009
2.505600   0.000000    0.000009
2.506800   0.000000    0.000009
2.508000   0.000000    0.000009
2.509200   0.000000    0.000009
2.510400   0.000000    0.000009
2.511600   0.000000    0.000009
2.512800   0.000000    0.000008
2.514000   0.000000    0.000008
2.515200   0.000000    0.000008
2.516400   0.000000    0.000008
2.517600   0.000000    0.000008
2.518800   0.000000    0.000008
2.520000   0.000000    0.000008
2.521200   0.000000    0.000008
2.522400   0.000000    0.000008
2.523600   0.000000    0.000008
2.524800   0.000000    0.000008
2.526000   0.000000    0.000007
2.527200   0.000000    0.000007
2.528400   0.000000    0.000007
2.529600   0.000000    0.000007
2.530800   0.000000    0.000007
2.532000   0.000000    0.000007
2.533200   0.000000    0.000007
2.534400   0.000000    0.000007
2.535600   0.000000    0.000007
2.536800   0.000000    0.000007
2.538000   0.000000    0.000007
2.539200   0.000000    0.000007
2.540400   0.000000    0.000007
2.541600   0.000000    0.000006
2.542800   0.000000    0.000006
2.544000   0.000000    0.000006
2.545200   0.000000    0.000006
2.546400   0.000000    0.000006
2.547600   0.000000    0.000006
2.548800   0.000000    0.000006
2.550000   0.000000    0.000006
2.551200   0.000000    0.000006
2.552400   0.000000    0.000006
2.553600   0.000000    0.000006
2.554800   0.000000    0.000006
2.556000   0.000000    0.000006
2.557200   0.000000    0.000006
2.558400   0.000000    0.000006
2.559600   0.000000    0.000005
2.560800   0.000000    0.000005
2.562000   0.000000    0.000005
2.563200   0.000000    0.000005
2.564400   0.000000    0.000005
2.565600   0.000000    0.000005
2.566800   0.000000    0.000005
2.568000   0.000000    0.000005
2.569200   0.000000    0.000005
2.570400   0.000000    0.000005
2.571600   0.000000    0.000005
2.572800   0.000000    0.000005
2.574000   0.000000    0.000005
2.575200   0.000000    0.000005
2.576400   0.000000    0.000005
2.577600   0.000000    0.000005
2.578800   0.000000    0.000005
2.580000   0.000000    0.000005
2.581200   0.000000    0.000004
2.582400   0.000000    0.000004
2.583600   0.000000    0.000004
2.584800   0.000000    0.000004
2.586000   0.000000    0.000004
2.587200   0.000000    0.000004
2.588400   0.000000    0.000004
2.589600   0.000000    0.000004
2.590800   0.000000    0.000004
2.592000   0.000000    0.000004
2.593200   0.000000    0.000004
2.594400   0.000000    0.000004
2.595600   0.000000    0.000004
2.596800   0.000000    0.000004
2.598000   0.000000    0.000004
2.599200   0.000000    0.000004
2.600400   0.000000    0.000004
2.601600   0.000000    0.000004
2.602800   0.000000    0.000004
2.604000   0.000000    0.000004
2.605200   0.000000    0.000004
2.606400   0.000000    0.000004
2.607600   0.000000    0.000004
2.608800   0.000000    0.000003
2.610000   0.000000    0.000003
2.611200   0.000000    0.000003
2.612400   0.000000    0.000003
2.613600   0.000000    0.000003
2.614800   0.000000    0.000003
2.616000   0.000000    0.000003
2.617200   0.000000    0.000003
2.618400   0.000000    0.000003
2.619600   0.000000    0.000003
2.620800   0.000000    0.000003
2.622000   0.000000    0.000003
2.623200   0.000000    0.000003
2.624400   0.000000    0.000003
2.625600   0.000000    0.000003
2.626800   0.000000    0.000003
2.628000   0.000000    0.000003
2.629200   0.000000    0.000003
2.630400   0.000000    0.000003
2.631600   0.000000    0.000003
2.632800   0.000000    0.000003
2.634000   0.000000    0.000003
2.635200   0.000000    0.000003
2.636400   0.000000    0.000003
2.637600   0.000000    0.000003
2.638800   0.000000    0.000003
2.640000   0.000000    0.000003
2.641200   0.000000    0.000003
2.642400   0.000000    0.000003
2.643600   0.000000    0.000002
2.644800   0.000000    0.000002
2.646000   0.000000    0.000002
2.647200   0.000000    0.000002
2.648400   0.000000    0.000002
2.649600   0.000000    0.000002
2.650800   0.000000    0.000002
2.652000   0.000000    0.000002
2.653200   0.000000    0.000002
2.654400   0.000000    0.000002
2.655600   0.000000    0.000002
2.656800   0.000000    0.000002
2.658000   0.000000    0.000002
2.659200   0.000000    0.000002
2.660400   0.000000    0.000002
2.661600   0.000000    0.000002
2.662800   0.000000    0.000002
2.664000   0.000000    0.000002
2.665200   0.000000    0.000002
2.666400   0.000000    0.000002
2.667600   0.000000    0.000002
2.668800   0.000000    0.000002
2.670000   0.000000    0.000002
2.671200   0.000000    0.000002
2.672400   0.000000    0.000002
2.673600   0.000000    0.000002
2.674800   0.000000    0.000002
2.676000   0.000000    0.000002
2.677200   0.000000    0.000002
2.678400   0.000000    0.000002
2.679600   0.000000    0.000002
2.680800   0.000000    0.000002
2.682000   0.000000    0.000002
2.683200   0.000000    0.000002
2.684400   0.000000    0.000002
2.685600   0.000000    0.000002
2.686800   0.000000    0.000002
2.688000   0.000000    0.000002
2.689200   0.000000    0.000002
2.690400   0.000000    0.000002
2.691600   0.000000    0.000002
2.692800   0.000000    0.000002
2.694000   0.000000    0.000002
2.695200   0.000000    0.000002
2.696400   0.000000    0.000001
2.697600   0.000000    0.000001
2.698800   0.000000    0.000001
2.700000   0.000000    0.000001
2.701200   0.000000    0.000001
2.702400   0.000000    0.000001
2.703600   0.000000    0.000001
2.704800   0.000000    0.000001
2.706000   0.000000    0.000001
2.707200   0.000000    0.000001
2.708400   0.000000    0.000001
2.709600   0.000000    0.000001
2.710800   0.000000    0.000001
2.712000   0.000000    0.000001
2.713200   0.000000    0.000001
2.714400   0.000000    0.000001
2.715600   0.000000    0.000001
2.716800   0.000000    0.000001
2.718000   0.000000    0.000001
2.719200   0.000000    0.000001
2.720400   0.000000    0.000001
2.721600   0.000000    0.000001
2.722800   0.000000    0.000001
2.724000   0.000000    0.000001
2.725200   0.000000    0.000001
2.726400   0.000000    0.000001
2.727600   0.000000    0.000001
2.728800   0.000000    0.000001
2.730000   0.000000    0.000001
2.731200   0.000000    0.000001
2.732400   0.000000    0.000001
2.733600   0.000000    0.000001
2.734800   0.000000    0.000001
2.736000   0.000000    0.000001
2.737200   0.000000    0.000001
2.738400   0.000000    0.000001
2.739600   0.000000    0.000001
2.740800   0.000000    0.000001
2.742000   0.000000    0.000001
2.743200   0.000000    0.000001
2.744400   0.000000    0.000001
2.745600   0.000000    0.000001
2.746800   0.000000    0.000001
2.748000   0.000000    0.000001
2.749200   0.000000    0.000001
2.750400   0.000000    0.000001
2.751600   0.000000    0.000001
2.752800   0.000000    0.000001
2.754000   0.000000    0.000001
2.755200   0.000000    0.000001
2.756400   0.000000    0.000001
2.757600   0.000000    0.000001
2.758800   0.000000    0.000001
2.760000   0.000000    0.000001
2.761200   0.000000    0.000001
2.762400   0.000000    0.000001
2.763600   0.000000    0.000001
2.764800   0.000000    0.000001
2.766000   0.000000    0.000001
2.767200   0.000000    0.000001
2.768400   0.000000    0.000001
2.769600   0.000000    0.000001
2.770800   0.000000    0.000001
2.772000   0.000000    0.000001
2.773200   0.000000    0.000001
2.774400   0.000000    0.000001
2.775600   0.000000    0.000001
2.776800   0.000000    0.000001
2.778000   0.000000    0.000001
2.779200   0.000000    0.000001
2.780400   0.000000    0.000001
2.781600   0.000000    0.000001
2.782800   0.000000    0.000001
2.784000   0.000000    0.000001
2.785200   0.000000    0.000001
2.786400   0.000000    0.000001
2.787600   0.000000    0.000001
2.788800   0.000000    0.000001
2.790000   0.000000    0.000001
2.791200   0.000000    0.000001
2.792400   0.000000    0.000001
2.793600   0.000000    0.000001
2.794800   0.000000    0.000001
2.796000   0.000000    0.000001
2.797200   0.000000    0.000001
2.798400   0.000000    0.000001
2.799600   0.000000    0.000001
2.800800   0.000000    0.000001
2.802000   0.000000    0.000001
2.803200   0.000000    0.000001
2.804400   0.000000    0.000001
2.805600   0.000000    0.000001
2.806800   0.000000    0.000000
2.808000   0.000000    0.000000
2.809200   0.000000    0.000000
2.810400   0.000000    0.000000
2.811600   0.000000    0.000000
2.812800   0.000000    0.000000
2.814000   0.000000    0.000000
2.815200   0.000000    0.000000
2.816400   0.000000    0.000000
2.817600   0.000000    0.000000
2.818800   0.000000    0.000000
2.820000   0.000000    0.000000
2.821200   0.000000    0.000000
2.822400   0.000000    0.000000
2.823600   0.000000    0.000000
2.824800   0.000000    0.000000
2.826000   0.000000    0.000000
2.827200   0.000000    0.000000
2.828400   0.000000    0.000000
2.829600   0.000000    0.000000
2.830800   0.000000    0.000000
2.832000   0.000000    0.000000
2.833200   0.000000    0.000000
2.834400   0.000000    0.000000
2.835600   0.000000    0.000000
2.836800   0.000000    0.000000
2.838000   0.000000    0.000000
2.839200   0.000000    0.000000
2.840400   0.000000    0.000000
2.841600   0.000000    0.000000
2.842800   0.000000    0.000000
2.844000   0.000000    0.000000
2.845200   0.000000    0.000000
2.846400   0.000000    0.000000
2.847600   0.000000    0.000000
2.848800   0.000000    0.000000
2.850000   0.000000    0.000000
2.851200   0.000000    0.000000
2.852400   0.000000    0.000000
2.853600   0.000000    0.000000
2.854800   0.000000    0.000000
2.856000   0.000000    0.000000
2.857200   0.000000    0.000000
2.858400   0.000000    0.000000
2.859600   0.000000    0.000000
2.860800   0.000000    0.000000
2.862000   0.000000    0.000000
2.863200   0.000000    0.000000
2.864400   0.000000    0.000000
2.865600   0.000000    0.000000
2.866800   0.000000    0.000000
2.868000   0.000000    0.000000
2.869200   0.000000    0.000000
2.870400   0.000000    0.000000
2.871600   0.000000    0.000000
2.872800   0.000000    0.000000
2.874000   0.000000    0.000000
2.875200   0.000000    0.000000
2.876400   0.000000    0.000000
2.877600   0.000000    0.000000
2.878800   0.000000    0.000000
2.880000   0.000000    0.000000
2.881200   0.000000    0.000000
2.882400   0.000000    0.000000
2.883600   0.000000    0.000000
2.884800   0.000000    0.000000
2.886000   0.000000    0.000000
2.887200   0.000000    0.000000
2.888400   0.000000    0.000000
2.889600   0.000000    0.000000
2.890800   0.000000    0.000000
2.892000   0.000000    0.000000
2.893200   0.000000    0.000000
2.894400   0.000000    0.000000
2.895600   0.000000    0.000000
2.896800   0.000000    0.000000
2.898000   0.000000    0.000000
2.899200   0.000000    0.000000
2.900400   0.000000    0.000000
2.901600   0.000000    0.000000
2.902800   0.000000    0.000000
2.904000   0.000000    0.000000
2.905200   0.000000    0.000000
2.906400   0.000000    0.000000
2.907600   0.000000    0.000000
2.908800   0.000000    0.000000
2.910000   0.000000    0.000000
2.911200   0.000000    0.000000
2.912400   0.000000    0.000000
2.913600   0.000000    0.000000
2.914800   0.000000    0.000000
2.916000   0.000000    0.000000
2.917200   0.000000    0.000000
2.918400   0.000000    0.000000
2.919600   0.000000    0.000000
2.920800   0.000000    0.000000
2.922000   0.000000    0.000000
2.923200   0.000000    0.000000
2.924400   0.000000    0.000000
2.925600   0.000000    0.000000
2.926800   0.000000    0.000000
2.928000   0.000000    0.000000
2.929200   0.000000    0.000000
2.930400   0.000000    0.000000
2.931600   0.000000    0.000000
2.932800   0.000000    0.000000
2.934000   0.000000    0.000000
2.935200   0.000000    0.000000
2.936400   0.000000    0.000000
2.937600   0.000000    0.000000
2.938800   0.000000    0.000000
2.940000   0.000000    0.000000
2.941200   0.000000    0.000000
2.942400   0.000000    0.000000
2.943600   0.000000    0.000000
2.944800   0.000000    0.000000
2.946000   0.000000    0.000000
2.947200   0.000000    0.000000
2.948400   0.000000    0.000000
2.949600   0.000000    0.000000
2.950800   0.000000    0.000000
2.952000   0.000000    0.000000
2.953200   0.000000    0.000000
2.954400   0.000000    0.000000
2.955600   0.000000    0.000000
2.956800   0.000000    0.000000
2.958000   0.000000    0.000000
2.959200   0.000000    0.000000
2.960400   0.000000    0.000000
2.961600   0.000000    0.000000
2.962800   0.000000    0.000000
2.964000   0.000000    0.000000
2.965200   0.000000    0.000000
2.966400   0.000000    0.000000
2.967600   0.000000    0.000000
2.968800   0.000000    0.000000
2.970000   0.000000    0.000000
2.971200   0.000000    0.000000
2.972400   0.000000    0.000000
2.973600   0.000000    0.000000
2.974800   0.000000    0.000000
2.976000   0.000000    0.000000
2.977200   0.000000    0.000000
2.978400   0.000000    0.000000
2.979600   0.000000    0.000000
2.980800   0.000000    0.000000
2.982000   0.000000    0.000000
2.983200   0.000000    0.000000
2.984400   0.000000    0.000000
2.985600   0.000000    0.000000
2.986800   0.000000    0.000000
2.988000   0.000000    0.000000
2.989200   0.000000    0.000000
2.990400   0.000000    0.000000
2.991600   0.000000    0.000000
2.992800   0.000000    0.000000
2.994000   0.000000    0.000000
2.995200   0.000000    0.000000
2.996400   0.000000    0.000000
2.997600   0.000000    0.000000
2.998800   0.000000    0.000000
3.000000   0.000000    0.000000
